OOIBase32 Version 1.0.0.8 Data File
++++++++++++++++++++++++++++++++++++
Date: Monday, January 14, 1980, 01:29:57
User: Valued Ocean Optics Customer
Spectrometer Serial Number: Unknown
Spectrometer Channel: Master
Integration Time (msec): 3
Spectra Averaged: 10
Boxcar Smoothing: 0
Correct for Electrical Dark: Disabled
Time Normalized: Disabled
Dual-beam Reference: Disabled
Reference Channel: Master
>>>>>Begin Spectral Data<<<<<
179.00	0.0000
179.38	0.0000
179.75	84.3000
180.13	84.2000
180.51	83.1000
180.88	84.6000
181.26	86.3000
181.64	85.1000
182.02	85.1000
182.39	84.0000
182.77	85.4000
183.15	84.8000
183.52	83.4000
183.90	85.4000
184.28	83.7000
184.65	84.5000
185.03	84.2000
185.41	84.8000
185.78	83.8000
186.16	83.9000
186.53	85.8000
186.91	83.6000
187.29	85.6000
187.66	84.4000
188.04	84.6000
188.42	85.6000
188.79	85.2000
189.17	86.3000
189.55	84.6000
189.92	85.1000
190.30	85.0000
190.67	84.9000
191.05	85.4000
191.43	86.5000
191.80	85.0000
192.18	84.3000
192.56	85.9000
192.93	85.0000
193.31	85.4000
193.68	85.8000
194.06	84.7000
194.44	85.7000
194.81	86.1000
195.19	85.4000
195.56	86.9000
195.94	86.0000
196.32	85.1000
196.69	84.5000
197.07	84.3000
197.44	85.5000
197.82	85.5000
198.19	84.1000
198.57	85.8000
198.95	85.6000
199.32	85.9000
199.70	84.2000
200.07	86.4000
200.45	85.6000
200.82	85.3000
201.20	85.6000
201.57	84.9000
201.95	85.6000
202.33	85.8000
202.70	85.3000
203.08	83.7000
203.45	84.7000
203.83	86.1000
204.20	83.9000
204.58	85.9000
204.95	85.3000
205.33	86.2000
205.70	86.0000
206.08	86.3000
206.45	86.1000
206.83	84.9000
207.20	85.5000
207.58	85.9000
207.95	85.2000
208.33	85.2000
208.70	84.9000
209.08	86.3000
209.45	84.8000
209.83	85.0000
210.20	84.8000
210.58	85.4000
210.95	85.4000
211.33	86.9000
211.70	85.5000
212.08	85.0000
212.45	84.6000
212.83	84.1000
213.20	84.7000
213.58	86.0000
213.95	85.4000
214.33	85.3000
214.70	85.8000
215.07	85.2000
215.45	85.8000
215.82	85.1000
216.20	86.3000
216.57	85.8000
216.95	83.9000
217.32	85.6000
217.70	86.6000
218.07	85.8000
218.44	86.3000
218.82	85.7000
219.19	87.4000
219.57	86.5000
219.94	86.0000
220.32	85.8000
220.69	85.2000
221.06	85.1000
221.44	85.4000
221.81	84.6000
222.19	84.7000
222.56	85.3000
222.93	86.6000
223.31	85.1000
223.68	86.1000
224.06	85.9000
224.43	87.5000
224.80	85.7000
225.18	85.8000
225.55	86.0000
225.92	86.9000
226.30	87.1000
226.67	85.8000
227.05	85.6000
227.42	85.5000
227.79	85.8000
228.17	86.0000
228.54	85.4000
228.91	85.8000
229.29	85.4000
229.66	86.1000
230.03	86.6000
230.41	86.5000
230.78	87.6000
231.15	87.1000
231.53	86.7000
231.90	85.3000
232.27	86.1000
232.65	85.7000
233.02	86.5000
233.39	85.9000
233.77	84.4000
234.14	85.9000
234.51	87.2000
234.89	84.4000
235.26	85.2000
235.63	85.2000
236.01	85.4000
236.38	86.4000
236.75	86.1000
237.12	86.1000
237.50	85.3000
237.87	86.3000
238.24	86.8000
238.62	86.9000
238.99	85.1000
239.36	85.7000
239.73	86.1000
240.11	86.7000
240.48	85.3000
240.85	85.7000
241.23	85.9000
241.60	85.7000
241.97	85.0000
242.34	86.6000
242.72	86.5000
243.09	85.4000
243.46	87.5000
243.83	86.1000
244.21	83.9000
244.58	86.8000
244.95	86.4000
245.32	85.7000
245.70	86.2000
246.07	85.2000
246.44	86.8000
246.81	85.7000
247.18	85.0000
247.56	86.9000
247.93	85.6000
248.30	86.1000
248.67	85.8000
249.04	85.4000
249.42	85.9000
249.79	84.9000
250.16	84.8000
250.53	86.0000
250.90	85.4000
251.28	85.5000
251.65	87.4000
252.02	85.2000
252.39	86.8000
252.76	86.1000
253.14	85.5000
253.51	85.6000
253.88	86.6000
254.25	86.3000
254.62	86.2000
254.99	86.0000
255.37	85.8000
255.74	87.2000
256.11	85.8000
256.48	88.2000
256.85	86.5000
257.22	86.5000
257.59	86.0000
257.97	87.0000
258.34	86.3000
258.71	86.4000
259.08	86.7000
259.45	86.0000
259.82	86.4000
260.19	87.9000
260.56	86.3000
260.94	86.9000
261.31	87.9000
261.68	86.7000
262.05	87.2000
262.42	87.0000
262.79	88.5000
263.16	89.0000
263.53	88.9000
263.90	87.4000
264.28	87.5000
264.65	88.3000
265.02	88.4000
265.39	90.5000
265.76	90.0000
266.13	90.4000
266.50	90.2000
266.87	89.5000
267.24	91.1000
267.61	90.8000
267.98	88.6000
268.35	91.2000
268.72	90.0000
269.09	90.6000
269.46	91.2000
269.84	90.4000
270.21	90.8000
270.58	90.5000
270.95	89.5000
271.32	91.9000
271.69	91.8000
272.06	91.8000
272.43	91.6000
272.80	91.7000
273.17	91.4000
273.54	92.3000
273.91	93.2000
274.28	91.7000
274.65	91.9000
275.02	92.2000
275.39	91.9000
275.76	92.9000
276.13	91.0000
276.50	93.5000
276.87	92.9000
277.24	92.6000
277.61	93.8000
277.98	92.1000
278.35	92.7000
278.72	91.2000
279.09	93.0000
279.46	94.3000
279.83	92.3000
280.20	92.9000
280.57	93.4000
280.94	92.9000
281.31	92.7000
281.67	92.5000
282.04	93.2000
282.41	96.0000
282.78	92.8000
283.15	94.4000
283.52	95.4000
283.89	94.8000
284.26	94.8000
284.63	93.7000
285.00	95.0000
285.37	94.2000
285.74	94.7000
286.11	95.0000
286.48	93.5000
286.85	94.7000
287.21	95.0000
287.58	94.0000
287.95	95.0000
288.32	95.5000
288.69	94.9000
289.06	95.7000
289.43	95.8000
289.80	95.7000
290.17	95.8000
290.54	95.2000
290.90	95.9000
291.27	95.6000
291.64	95.2000
292.01	95.0000
292.38	95.7000
292.75	96.0000
293.12	95.8000
293.48	96.8000
293.85	95.2000
294.22	96.6000
294.59	95.1000
294.96	96.4000
295.33	95.2000
295.70	95.2000
296.06	95.4000
296.43	95.8000
296.80	95.4000
297.17	95.3000
297.54	96.6000
297.91	98.1000
298.27	97.6000
298.64	96.0000
299.01	96.4000
299.38	95.2000
299.75	96.1000
300.11	96.0000
300.48	96.3000
300.85	97.6000
301.22	96.2000
301.59	97.1000
301.95	96.7000
302.32	95.9000
302.69	95.1000
303.06	96.8000
303.43	97.1000
303.79	95.9000
304.16	96.2000
304.53	97.3000
304.90	96.9000
305.26	96.4000
305.63	98.5000
306.00	98.0000
306.37	97.3000
306.73	96.9000
307.10	98.3000
307.47	98.7000
307.84	97.7000
308.20	98.2000
308.57	97.1000
308.94	98.0000
309.31	97.9000
309.67	96.4000
310.04	97.4000
310.41	97.2000
310.77	99.0000
311.14	98.1000
311.51	98.6000
311.88	97.8000
312.24	96.6000
312.61	96.4000
312.98	97.2000
313.34	98.2000
313.71	97.6000
314.08	97.1000
314.44	96.8000
314.81	97.9000
315.18	97.3000
315.55	98.9000
315.91	98.9000
316.28	97.4000
316.65	96.9000
317.01	98.7000
317.38	97.9000
317.75	97.8000
318.11	98.8000
318.48	97.5000
318.84	98.2000
319.21	97.1000
319.58	98.5000
319.94	98.2000
320.31	97.7000
320.68	99.5000
321.04	98.6000
321.41	99.0000
321.78	98.1000
322.14	99.1000
322.51	99.1000
322.87	100.5000
323.24	99.9000
323.61	99.1000
323.97	98.5000
324.34	97.9000
324.70	98.5000
325.07	98.5000
325.44	98.9000
325.80	98.5000
326.17	99.0000
326.53	100.2000
326.90	100.9000
327.27	99.4000
327.63	99.4000
328.00	100.3000
328.36	100.8000
328.73	99.5000
329.09	100.0000
329.46	100.8000
329.83	101.0000
330.19	101.8000
330.56	99.1000
330.92	100.3000
331.29	101.8000
331.65	102.0000
332.02	99.5000
332.38	100.1000
332.75	99.6000
333.11	100.5000
333.48	103.0000
333.84	103.0000
334.21	103.3000
334.58	101.2000
334.94	101.6000
335.31	102.8000
335.67	101.8000
336.04	102.8000
336.40	103.2000
336.77	102.8000
337.13	101.3000
337.50	100.7000
337.86	102.6000
338.22	103.5000
338.59	102.1000
338.95	103.5000
339.32	103.8000
339.68	103.0000
340.05	101.9000
340.41	103.5000
340.78	101.4000
341.14	101.8000
341.51	104.0000
341.87	102.8000
342.24	104.5000
342.60	104.6000
342.96	104.7000
343.33	104.5000
343.69	104.4000
344.06	106.4000
344.42	105.4000
344.79	105.9000
345.15	106.5000
345.51	105.3000
345.88	107.8000
346.24	107.8000
346.61	105.4000
346.97	107.0000
347.34	106.7000
347.70	107.2000
348.06	108.0000
348.43	110.6000
348.79	108.2000
349.16	108.8000
349.52	111.4000
349.88	110.4000
350.25	110.4000
350.61	110.8000
350.97	110.4000
351.34	111.7000
351.70	112.0000
352.07	111.8000
352.43	111.9000
352.79	110.2000
353.16	112.0000
353.52	112.1000
353.88	112.3000
354.25	112.3000
354.61	112.1000
354.97	113.4000
355.34	112.6000
355.70	111.1000
356.06	112.4000
356.43	115.0000
356.79	112.8000
357.15	114.8000
357.52	114.0000
357.88	113.5000
358.24	113.7000
358.60	115.0000
358.97	116.2000
359.33	115.1000
359.69	115.2000
360.06	115.2000
360.42	116.3000
360.78	117.7000
361.14	118.5000
361.51	119.2000
361.87	120.2000
362.23	121.3000
362.60	121.4000
362.96	121.9000
363.32	121.2000
363.68	122.1000
364.05	122.1000
364.41	122.9000
364.77	122.8000
365.13	122.7000
365.50	125.2000
365.86	127.2000
366.22	127.9000
366.58	124.5000
366.95	126.8000
367.31	125.5000
367.67	128.4000
368.03	126.4000
368.39	128.7000
368.76	130.0000
369.12	127.8000
369.48	126.4000
369.84	129.2000
370.20	131.8000
370.57	131.2000
370.93	130.6000
371.29	130.0000
371.65	132.3000
372.01	130.6000
372.38	132.1000
372.74	133.0000
373.10	130.3000
373.46	131.5000
373.82	132.7000
374.18	132.2000
374.55	133.8000
374.91	135.7000
375.27	137.9000
375.63	135.2000
375.99	134.6000
376.35	135.9000
376.71	137.0000
377.08	137.6000
377.44	138.6000
377.80	142.2000
378.16	141.8000
378.52	141.8000
378.88	144.6000
379.24	144.0000
379.60	146.1000
379.97	150.5000
380.33	147.5000
380.69	146.1000
381.05	147.6000
381.41	149.1000
381.77	148.0000
382.13	150.4000
382.49	148.8000
382.85	149.5000
383.21	153.0000
383.57	146.9000
383.94	153.4000
384.30	153.5000
384.66	152.0000
385.02	149.5000
385.38	152.3000
385.74	152.3000
386.10	154.4000
386.46	159.4000
386.82	155.9000
387.18	160.2000
387.54	157.8000
387.90	155.8000
388.26	161.0000
388.62	161.9000
388.98	155.5000
389.34	157.9000
389.70	158.8000
390.06	150.1000
390.42	154.4000
390.78	164.5000
391.14	170.2000
391.50	167.4000
391.86	172.3000
392.22	173.0000
392.58	170.1000
392.94	159.3000
393.30	163.2000
393.66	166.5000
394.02	169.5000
394.38	155.7000
394.74	163.0000
395.10	163.5000
395.46	167.0000
395.82	166.9000
396.18	165.4000
396.54	175.6000
396.90	178.8000
397.26	177.8000
397.62	174.5000
397.98	184.8000
398.34	169.0000
398.70	169.1000
399.05	162.0000
399.41	163.1000
399.77	168.4000
400.13	170.9000
400.49	172.5000
400.85	175.1000
401.21	166.6000
401.57	177.7000
401.93	171.6000
402.29	169.4000
402.65	173.0000
403.00	177.4000
403.36	178.7000
403.72	174.9000
404.08	190.0000
404.44	179.6000
404.80	183.1000
405.16	180.7000
405.52	180.5000
405.87	186.3000
406.23	181.1000
406.59	168.9000
406.95	176.3000
407.31	178.4000
407.67	180.7000
408.03	181.0000
408.38	185.2000
408.74	194.3000
409.10	192.7000
409.46	181.8000
409.82	186.9000
410.17	185.8000
410.53	179.5000
410.89	184.9000
411.25	174.2000
411.61	179.1000
411.97	188.7000
412.32	191.3000
412.68	190.4000
413.04	182.2000
413.40	171.6000
413.75	178.4000
414.11	181.3000
414.47	177.7000
414.83	193.4000
415.19	183.3000
415.54	175.0000
415.90	188.7000
416.26	186.2000
416.62	189.2000
416.97	177.1000
417.33	193.5000
417.69	192.7000
418.05	188.6000
418.40	183.2000
418.76	182.3000
419.12	193.4000
419.48	200.9000
419.83	206.6000
420.19	193.4000
420.55	195.1000
420.90	214.4000
421.26	206.9000
421.62	190.9000
421.98	203.8000
422.33	213.1000
422.69	217.2000
423.05	207.5000
423.40	189.3000
423.76	186.7000
424.12	200.8000
424.47	199.9000
424.83	190.2000
425.19	191.5000
425.54	196.1000
425.90	204.1000
426.26	209.4000
426.61	214.5000
426.97	182.2000
427.33	203.9000
427.68	201.7000
428.04	222.9000
428.40	225.5000
428.75	231.7000
429.11	212.1000
429.47	234.8000
429.82	231.6000
430.18	222.0000
430.53	211.6000
430.89	212.0000
431.25	210.7000
431.60	212.7000
431.96	206.9000
432.31	207.6000
432.67	224.9000
433.03	235.1000
433.38	216.6000
433.74	219.0000
434.09	219.5000
434.45	217.9000
434.81	209.0000
435.16	222.8000
435.52	209.3000
435.87	207.2000
436.23	207.3000
436.58	206.1000
436.94	213.9000
437.30	224.8000
437.65	229.1000
438.01	230.6000
438.36	215.8000
438.72	210.9000
439.07	204.8000
439.43	213.9000
439.78	226.1000
440.14	244.5000
440.49	222.6000
440.85	227.1000
441.20	237.7000
441.56	228.9000
441.91	243.6000
442.27	227.5000
442.62	230.2000
442.98	237.9000
443.33	230.3000
443.69	237.2000
444.04	230.8000
444.40	218.0000
444.75	237.8000
445.11	246.4000
445.46	251.3000
445.82	245.0000
446.17	231.6000
446.53	240.5000
446.88	260.9000
447.23	228.0000
447.59	228.1000
447.94	228.0000
448.30	236.8000
448.65	228.0000
449.01	241.5000
449.36	242.4000
449.72	249.9000
450.07	260.2000
450.42	247.6000
450.78	238.9000
451.13	251.6000
451.49	238.0000
451.84	236.3000
452.19	228.7000
452.55	228.9000
452.90	240.2000
453.26	257.7000
453.61	261.0000
453.96	227.8000
454.32	248.5000
454.67	242.4000
455.02	225.9000
455.38	235.9000
455.73	239.6000
456.09	257.3000
456.44	259.8000
456.79	259.9000
457.15	251.1000
457.50	247.5000
457.85	249.2000
458.21	255.9000
458.56	254.0000
458.91	247.2000
459.27	236.4000
459.62	247.8000
459.97	252.1000
460.32	255.5000
460.68	244.0000
461.03	235.7000
461.38	242.6000
461.74	262.7000
462.09	255.4000
462.44	246.3000
462.80	258.9000
463.15	257.5000
463.50	255.2000
463.85	268.2000
464.21	271.6000
464.56	283.0000
464.91	257.2000
465.26	256.7000
465.62	264.5000
465.97	273.6000
466.32	265.8000
466.67	267.4000
467.03	264.6000
467.38	265.0000
467.73	263.5000
468.08	270.8000
468.44	272.3000
468.79	266.6000
469.14	255.8000
469.49	265.1000
469.85	267.4000
470.20	285.6000
470.55	289.8000
470.90	290.1000
471.25	270.9000
471.61	288.8000
471.96	285.0000
472.31	300.1000
472.66	305.3000
473.01	307.8000
473.36	312.5000
473.72	312.6000
474.07	318.6000
474.42	317.8000
474.77	322.6000
475.12	324.6000
475.47	330.9000
475.83	331.9000
476.18	325.4000
476.53	323.3000
476.88	345.0000
477.23	342.3000
477.58	339.2000
477.93	340.6000
478.28	341.4000
478.64	348.7000
478.99	358.0000
479.34	363.3000
479.69	367.5000
480.04	370.6000
480.39	370.6000
480.74	365.8000
481.09	381.5000
481.44	380.8000
481.79	379.3000
482.15	384.8000
482.50	392.1000
482.85	390.4000
483.20	405.4000
483.55	412.6000
483.90	428.4000
484.25	494.3000
484.60	537.2000
484.95	577.8000
485.30	545.5000
485.65	495.0000
486.00	473.7000
486.35	440.9000
486.70	422.9000
487.05	430.0000
487.40	425.0000
487.75	425.0000
488.10	424.9000
488.45	420.4000
488.80	420.0000
489.15	427.7000
489.50	431.1000
489.85	430.5000
490.20	426.3000
490.55	435.6000
490.90	429.9000
491.25	435.8000
491.60	430.9000
491.95	428.0000
492.30	433.6000
492.65	438.2000
493.00	435.4000
493.35	435.1000
493.70	436.8000
494.05	433.5000
494.40	439.8000
494.75	450.3000
495.10	452.6000
495.45	452.7000
495.80	454.2000
496.15	445.2000
496.50	439.4000
496.84	437.8000
497.19	439.5000
497.54	441.5000
497.89	447.5000
498.24	446.6000
498.59	454.8000
498.94	448.3000
499.29	446.2000
499.64	449.9000
499.99	453.2000
500.33	457.9000
500.68	457.8000
501.03	456.8000
501.38	460.9000
501.73	463.7000
502.08	461.6000
502.43	460.5000
502.77	461.8000
503.12	457.1000
503.47	454.9000
503.82	459.0000
504.17	457.0000
504.52	463.1000
504.86	462.1000
505.21	469.2000
505.56	464.2000
505.91	460.3000
506.26	458.5000
506.61	461.9000
506.95	463.1000
507.30	465.0000
507.65	466.0000
508.00	463.6000
508.35	464.3000
508.69	463.3000
509.04	467.2000
509.39	468.1000
509.74	466.1000
510.08	467.4000
510.43	469.3000
510.78	467.5000
511.13	467.4000
511.47	471.4000
511.82	471.4000
512.17	470.2000
512.52	472.9000
512.86	470.9000
513.21	473.5000
513.56	467.1000
513.91	471.0000
514.25	466.9000
514.60	467.5000
514.95	474.6000
515.30	473.6000
515.64	473.9000
515.99	476.5000
516.34	477.0000
516.68	475.6000
517.03	475.2000
517.38	476.3000
517.72	484.9000
518.07	483.4000
518.42	483.0000
518.76	481.9000
519.11	478.9000
519.46	484.3000
519.80	477.7000
520.15	481.6000
520.50	481.7000
520.84	481.1000
521.19	488.1000
521.54	486.5000
521.88	474.9000
522.23	483.9000
522.58	484.7000
522.92	488.0000
523.27	487.5000
523.61	485.6000
523.96	482.4000
524.31	488.9000
524.65	486.2000
525.00	489.9000
525.34	477.8000
525.69	481.7000
526.04	488.8000
526.38	489.3000
526.73	488.2000
527.07	491.7000
527.42	490.4000
527.76	495.5000
528.11	500.2000
528.46	491.6000
528.80	490.3000
529.15	485.4000
529.49	487.6000
529.84	491.3000
530.18	490.7000
530.53	493.5000
530.87	487.9000
531.22	492.0000
531.56	494.7000
531.91	499.6000
532.25	500.0000
532.60	499.7000
532.94	494.4000
533.29	496.2000
533.63	495.3000
533.98	492.8000
534.32	495.4000
534.67	500.8000
535.01	500.8000
535.36	491.8000
535.70	493.2000
536.05	491.5000
536.39	494.6000
536.74	496.1000
537.08	490.6000
537.43	493.2000
537.77	494.5000
538.12	506.1000
538.46	501.6000
538.80	494.8000
539.15	492.9000
539.49	497.7000
539.84	505.1000
540.18	505.5000
540.53	496.7000
540.87	501.3000
541.21	502.9000
541.56	500.1000
541.90	500.3000
542.25	499.1000
542.59	500.3000
542.93	504.8000
543.28	496.8000
543.62	501.3000
543.97	502.2000
544.31	501.5000
544.65	501.5000
545.00	496.2000
545.34	500.9000
545.68	502.6000
546.03	498.4000
546.37	504.9000
546.71	514.8000
547.06	514.7000
547.40	511.4000
547.74	507.6000
548.09	505.3000
548.43	497.5000
548.77	494.5000
549.12	492.8000
549.46	494.9000
549.80	495.7000
550.15	497.3000
550.49	497.0000
550.83	501.1000
551.17	505.9000
551.52	503.5000
551.86	502.4000
552.20	501.8000
552.55	511.2000
552.89	503.1000
553.23	499.5000
553.57	501.2000
553.92	500.8000
554.26	505.4000
554.60	505.2000
554.94	510.8000
555.29	505.6000
555.63	505.7000
555.97	505.1000
556.31	507.0000
556.66	501.2000
557.00	496.2000
557.34	500.2000
557.68	497.8000
558.02	495.9000
558.37	500.4000
558.71	499.6000
559.05	507.7000
559.39	513.1000
559.73	516.9000
560.08	514.9000
560.42	514.1000
560.76	511.8000
561.10	504.0000
561.44	506.7000
561.78	505.0000
562.13	509.2000
562.47	509.6000
562.81	512.2000
563.15	512.4000
563.49	512.4000
563.83	512.0000
564.17	509.5000
564.52	507.5000
564.86	508.5000
565.20	506.2000
565.54	505.1000
565.88	512.6000
566.22	518.7000
566.56	518.2000
566.90	530.5000
567.24	536.5000
567.59	535.0000
567.93	544.8000
568.27	551.0000
568.61	558.1000
568.95	562.8000
569.29	570.7000
569.63	582.2000
569.97	581.5000
570.31	584.6000
570.65	592.4000
570.99	589.7000
571.33	583.6000
571.67	582.0000
572.01	587.3000
572.35	602.6000
572.69	617.5000
573.03	617.9000
573.37	625.7000
573.71	629.3000
574.05	617.0000
574.39	607.6000
574.73	604.1000
575.07	601.9000
575.41	609.9000
575.75	610.0000
576.09	634.3000
576.43	653.0000
576.77	673.6000
577.11	662.6000
577.45	646.8000
577.79	623.5000
578.13	618.1000
578.47	613.2000
578.81	615.7000
579.15	616.1000
579.49	627.9000
579.83	656.9000
580.17	689.2000
580.51	712.8000
580.85	713.1000
581.19	687.4000
581.53	651.0000
581.87	617.6000
582.20	593.1000
582.54	580.3000
582.88	578.1000
583.22	586.0000
583.56	609.8000
583.90	631.6000
584.24	641.0000
584.58	624.9000
584.92	616.6000
585.25	602.6000
585.59	598.5000
585.93	604.4000
586.27	613.9000
586.61	599.3000
586.95	601.2000
587.29	597.1000
587.62	580.7000
587.96	570.6000
588.30	559.3000
588.64	551.5000
588.98	550.7000
589.31	552.0000
589.65	538.8000
589.99	533.1000
590.33	534.4000
590.67	531.7000
591.01	542.2000
591.34	566.1000
591.68	579.5000
592.02	600.8000
592.36	590.5000
592.69	583.8000
593.03	570.2000
593.37	564.9000
593.71	570.1000
594.04	572.9000
594.38	565.4000
594.72	564.9000
595.06	544.2000
595.39	539.7000
595.73	539.6000
596.07	548.4000
596.41	544.9000
596.74	545.1000
597.08	541.6000
597.42	558.5000
597.76	562.8000
598.09	568.7000
598.43	563.3000
598.77	568.8000
599.10	577.0000
599.44	571.6000
599.78	566.6000
600.11	568.0000
600.45	565.6000
600.79	555.7000
601.12	556.4000
601.46	553.6000
601.80	558.0000
602.13	562.7000
602.47	563.4000
602.81	560.8000
603.14	556.0000
603.48	544.7000
603.82	544.5000
604.15	542.8000
604.49	550.2000
604.82	549.5000
605.16	549.3000
605.50	537.9000
605.83	546.6000
606.17	547.8000
606.50	551.6000
606.84	546.1000
607.18	541.5000
607.51	531.8000
607.85	533.2000
608.18	524.5000
608.52	531.7000
608.86	535.6000
609.19	539.1000
609.53	529.6000
609.86	532.6000
610.20	535.5000
610.53	531.0000
610.87	518.4000
611.20	531.0000
611.54	515.4000
611.87	521.1000
612.21	522.5000
612.54	516.3000
612.88	514.5000
613.21	520.9000
613.55	522.7000
613.88	520.9000
614.22	524.4000
614.55	519.1000
614.89	517.8000
615.22	509.4000
615.56	506.2000
615.89	498.3000
616.23	499.6000
616.56	494.1000
616.90	496.8000
617.23	490.8000
617.57	493.4000
617.90	484.2000
618.24	490.8000
618.57	485.8000
618.90	487.3000
619.24	485.6000
619.57	477.9000
619.91	475.6000
620.24	464.8000
620.58	475.3000
620.91	477.3000
621.24	480.0000
621.58	486.7000
621.91	483.2000
622.25	485.0000
622.58	483.9000
622.91	483.4000
623.25	475.0000
623.58	477.3000
623.91	475.7000
624.25	469.5000
624.58	468.1000
624.92	468.3000
625.25	459.4000
625.58	456.8000
625.92	460.2000
626.25	457.5000
626.58	461.6000
626.92	452.5000
627.25	452.4000
627.58	446.5000
627.91	452.7000
628.25	453.0000
628.58	453.3000
628.91	450.7000
629.25	452.0000
629.58	444.6000
629.91	443.1000
630.25	444.2000
630.58	441.2000
630.91	436.0000
631.24	436.3000
631.58	434.8000
631.91	434.8000
632.24	428.1000
632.57	428.3000
632.91	431.1000
633.24	426.1000
633.57	424.9000
633.90	425.6000
634.24	427.6000
634.57	428.3000
634.90	427.7000
635.23	427.0000
635.56	425.9000
635.90	424.2000
636.23	424.9000
636.56	421.8000
636.89	428.5000
637.22	424.3000
637.56	426.5000
637.89	414.6000
638.22	420.0000
638.55	417.7000
638.88	414.1000
639.21	417.5000
639.55	412.9000
639.88	410.1000
640.21	412.4000
640.54	411.9000
640.87	409.7000
641.20	408.8000
641.53	407.6000
641.87	408.8000
642.20	408.9000
642.53	408.1000
642.86	404.4000
643.19	406.4000
643.52	406.4000
643.85	408.2000
644.18	401.8000
644.51	404.7000
644.84	401.8000
645.18	399.7000
645.51	399.4000
645.84	398.0000
646.17	396.3000
646.50	399.3000
646.83	401.4000
647.16	399.5000
647.49	406.2000
647.82	407.1000
648.15	409.0000
648.48	405.6000
648.81	404.7000
649.14	397.4000
649.47	400.1000
649.80	398.1000
650.13	395.2000
650.46	399.0000
650.79	392.3000
651.12	394.8000
651.45	396.5000
651.78	395.4000
652.11	397.9000
652.44	393.6000
652.77	393.3000
653.10	392.9000
653.43	391.7000
653.76	392.5000
654.09	410.7000
654.42	639.2000
654.75	939.2000
655.08	1113.0000
655.41	1115.6000
655.74	882.3000
656.07	732.2000
656.39	629.6000
656.72	548.3000
657.05	479.2000
657.38	434.1000
657.71	405.7000
658.04	399.9000
658.37	390.1000
658.70	388.8000
659.03	380.3000
659.36	386.3000
659.68	383.8000
660.01	382.2000
660.34	383.6000
660.67	382.8000
661.00	381.9000
661.33	379.8000
661.66	374.0000
661.98	377.6000
662.31	379.0000
662.64	375.3000
662.97	379.4000
663.30	376.1000
663.63	376.1000
663.95	375.8000
664.28	377.5000
664.61	375.3000
664.94	373.8000
665.27	376.4000
665.59	368.8000
665.92	368.9000
666.25	371.5000
666.58	365.1000
666.91	372.4000
667.23	369.5000
667.56	368.2000
667.89	369.3000
668.22	366.4000
668.54	368.6000
668.87	369.1000
669.20	368.3000
669.53	366.8000
669.85	366.7000
670.18	367.0000
670.51	371.3000
670.83	371.4000
671.16	373.0000
671.49	379.6000
671.82	373.7000
672.14	370.8000
672.47	367.7000
672.80	363.8000
673.12	365.4000
673.45	364.2000
673.78	357.0000
674.10	361.0000
674.43	358.1000
674.76	356.1000
675.08	358.5000
675.41	355.9000
675.74	358.5000
676.06	356.4000
676.39	354.9000
676.72	355.8000
677.04	357.6000
677.37	360.6000
677.69	354.5000
678.02	355.2000
678.35	351.8000
678.67	354.2000
679.00	360.6000
679.32	359.4000
679.65	352.2000
679.98	356.6000
680.30	354.8000
680.63	354.7000
680.95	352.4000
681.28	348.5000
681.60	344.9000
681.93	346.7000
682.26	345.2000
682.58	345.0000
682.91	345.4000
683.23	346.5000
683.56	346.1000
683.88	350.5000
684.21	349.5000
684.53	356.9000
684.86	353.0000
685.18	352.9000
685.51	347.9000
685.83	343.9000
686.16	340.3000
686.48	336.3000
686.81	337.8000
687.13	338.5000
687.46	334.3000
687.78	334.5000
688.11	330.5000
688.43	330.1000
688.76	332.9000
689.08	333.4000
689.41	328.1000
689.73	329.1000
690.05	330.6000
690.38	332.5000
690.70	329.9000
691.03	329.5000
691.35	329.8000
691.68	326.0000
692.00	329.5000
692.32	331.6000
692.65	327.3000
692.97	326.2000
693.29	322.2000
693.62	321.4000
693.94	320.6000
694.27	317.0000
694.59	316.0000
694.91	316.4000
695.24	314.2000
695.56	314.2000
695.88	316.1000
696.21	314.6000
696.53	313.9000
696.85	315.4000
697.18	315.7000
697.50	313.4000
697.82	311.8000
698.15	310.0000
698.47	307.5000
698.79	304.2000
699.12	305.4000
699.44	298.3000
699.76	300.1000
700.09	299.0000
700.41	299.6000
700.73	299.5000
701.05	302.2000
701.38	301.3000
701.70	301.5000
702.02	302.5000
702.34	300.4000
702.67	301.2000
702.99	297.0000
703.31	297.0000
703.63	296.3000
703.96	295.0000
704.28	294.0000
704.60	290.1000
704.92	289.8000
705.25	288.6000
705.57	292.4000
705.89	297.8000
706.21	300.6000
706.53	300.6000
706.86	301.2000
707.18	299.4000
707.50	299.4000
707.82	293.3000
708.14	295.4000
708.46	296.7000
708.79	290.2000
709.11	293.2000
709.43	292.8000
709.75	290.7000
710.07	289.7000
710.39	291.3000
710.71	289.1000
711.04	283.9000
711.36	283.3000
711.68	282.6000
712.00	285.8000
712.32	287.2000
712.64	283.9000
712.96	286.2000
713.28	284.1000
713.60	288.3000
713.92	282.8000
714.24	283.1000
714.57	284.8000
714.89	283.9000
715.21	279.4000
715.53	276.6000
715.85	275.1000
716.17	271.8000
716.49	273.5000
716.81	273.0000
717.13	274.4000
717.45	276.7000
717.77	276.5000
718.09	275.3000
718.41	272.0000
718.73	273.5000
719.05	271.4000
719.37	266.9000
719.69	267.4000
720.01	271.5000
720.33	267.6000
720.65	267.0000
720.97	269.5000
721.29	268.7000
721.61	268.2000
721.93	264.0000
722.25	264.2000
722.57	265.6000
722.89	262.7000
723.21	263.2000
723.52	260.7000
723.84	259.6000
724.16	260.1000
724.48	263.3000
724.80	263.0000
725.12	262.7000
725.44	262.7000
725.76	261.0000
726.08	262.1000
726.40	256.7000
726.72	259.3000
727.03	260.7000
727.35	258.6000
727.67	259.1000
727.99	259.4000
728.31	259.9000
728.63	259.8000
728.95	259.1000
729.26	256.8000
729.58	257.4000
729.90	257.9000
730.22	253.7000
730.54	257.3000
730.86	259.5000
731.17	256.0000
731.49	254.9000
731.81	254.2000
732.13	252.5000
732.45	251.1000
732.76	253.8000
733.08	253.6000
733.40	255.2000
733.72	251.6000
734.03	251.2000
734.35	251.9000
734.67	252.0000
734.99	248.0000
735.30	250.7000
735.62	246.2000
735.94	248.2000
736.26	248.4000
736.57	245.2000
736.89	246.2000
737.21	240.5000
737.53	237.9000
737.84	237.7000
738.16	237.5000
738.48	242.2000
738.79	244.4000
739.11	240.5000
739.43	242.1000
739.74	239.3000
740.06	234.5000
740.38	233.5000
740.69	232.9000
741.01	228.2000
741.33	229.3000
741.64	229.9000
741.96	229.9000
742.28	231.0000
742.59	226.0000
742.91	224.9000
743.23	222.3000
743.54	225.2000
743.86	223.8000
744.17	220.9000
744.49	223.4000
744.81	221.6000
745.12	221.0000
745.44	219.3000
745.75	220.2000
746.07	220.7000
746.38	218.6000
746.70	217.3000
747.02	221.1000
747.33	217.2000
747.65	216.8000
747.96	217.6000
748.28	214.3000
748.59	215.4000
748.91	214.9000
749.22	218.6000
749.54	217.4000
749.85	218.8000
750.17	216.5000
750.48	212.9000
750.80	217.1000
751.11	212.7000
751.43	212.5000
751.74	213.7000
752.06	211.3000
752.37	213.0000
752.69	212.5000
753.00	210.6000
753.32	212.6000
753.63	211.2000
753.95	212.0000
754.26	211.3000
754.58	211.8000
754.89	213.9000
755.20	211.7000
755.52	214.5000
755.83	214.9000
756.15	216.6000
756.46	219.5000
756.78	217.0000
757.09	218.6000
757.40	219.9000
757.72	215.3000
758.03	213.2000
758.34	210.6000
758.66	212.0000
758.97	213.4000
759.29	212.0000
759.60	212.2000
759.91	210.6000
760.23	210.6000
760.54	211.2000
760.85	210.5000
761.17	210.1000
761.48	206.3000
761.79	204.1000
762.11	205.2000
762.42	206.8000
762.73	204.9000
763.05	204.8000
763.36	205.8000
763.67	208.7000
763.98	210.7000
764.30	208.7000
764.61	210.1000
764.92	204.9000
765.23	200.2000
765.55	199.2000
765.86	197.2000
766.17	195.8000
766.48	196.2000
766.80	193.1000
767.11	196.1000
767.42	194.7000
767.73	197.6000
768.05	200.5000
768.36	199.4000
768.67	199.8000
768.98	196.4000
769.29	198.1000
769.61	196.4000
769.92	193.5000
770.23	195.6000
770.54	191.8000
770.85	196.1000
771.17	192.6000
771.48	191.0000
771.79	191.4000
772.10	188.3000
772.41	189.0000
772.72	188.3000
773.03	184.9000
773.35	186.6000
773.66	185.1000
773.97	181.6000
774.28	183.5000
774.59	181.7000
774.90	180.5000
775.21	181.3000
775.52	182.8000
775.83	180.0000
776.15	179.4000
776.46	177.6000
776.77	178.9000
777.08	178.0000
777.39	177.6000
777.70	178.6000
778.01	179.6000
778.32	180.6000
778.63	181.8000
778.94	178.4000
779.25	176.5000
779.56	178.3000
779.87	176.7000
780.18	176.2000
780.49	177.4000
780.80	175.1000
781.11	175.4000
781.42	177.7000
781.73	174.5000
782.04	175.0000
782.35	174.6000
782.66	173.4000
782.97	173.6000
783.28	172.6000
783.59	169.3000
783.90	168.7000
784.21	168.5000
784.52	167.6000
784.83	168.8000
785.14	169.0000
785.45	167.6000
785.76	167.6000
786.06	165.2000
786.37	167.3000
786.68	166.4000
786.99	164.3000
787.30	164.8000
787.61	166.7000
787.92	162.9000
788.23	166.4000
788.54	165.9000
788.84	163.0000
789.15	161.5000
789.46	160.6000
789.77	160.7000
790.08	161.2000
790.39	160.1000
790.70	160.6000
791.00	159.9000
791.31	157.2000
791.62	157.2000
791.93	155.7000
792.24	157.9000
792.54	156.2000
792.85	155.9000
793.16	158.0000
793.47	159.0000
793.78	161.6000
794.08	161.1000
794.39	155.6000
794.70	156.6000
795.01	155.2000
795.31	152.5000
795.62	151.5000
795.93	152.2000
796.24	150.9000
796.54	151.5000
796.85	151.7000
797.16	149.9000
797.47	150.8000
797.77	148.9000
798.08	149.3000
798.39	148.6000
798.69	146.2000
799.00	147.1000
799.31	147.5000
799.62	145.3000
799.92	144.2000
800.23	143.7000
800.54	144.4000
800.84	144.3000
801.15	143.2000
801.46	142.2000
801.76	142.9000
802.07	141.7000
802.37	143.7000
802.68	140.4000
802.99	142.1000
803.29	141.8000
803.60	139.1000
803.91	140.8000
804.21	141.1000
804.52	140.5000
804.82	140.9000
805.13	142.1000
805.44	140.9000
805.74	142.8000
806.05	141.3000
806.35	139.1000
806.66	141.7000
806.96	140.8000
807.27	135.9000
807.57	138.2000
807.88	137.8000
808.19	137.4000
808.49	137.5000
808.80	137.2000
809.10	136.7000
809.41	136.1000
809.71	135.6000
810.02	134.8000
810.32	135.9000
810.63	133.5000
810.93	134.4000
811.24	133.2000
811.54	130.8000
811.85	133.3000
812.15	132.9000
812.45	132.7000
812.76	132.7000
813.06	130.3000
813.37	132.2000
813.67	133.2000
813.98	132.4000
814.28	130.6000
814.58	130.1000
814.89	128.5000
815.19	126.6000
815.50	129.0000
815.80	130.1000
816.11	128.9000
816.41	128.7000
816.71	128.3000
817.02	126.9000
817.32	126.9000
817.62	127.1000
817.93	128.1000
818.23	126.8000
818.53	128.8000
818.84	125.4000
819.14	125.4000
819.44	126.0000
819.75	125.0000
820.05	127.0000
820.35	125.5000
820.66	124.9000
820.96	123.9000
821.26	125.0000
821.57	122.9000
821.87	124.8000
822.17	122.4000
822.48	122.7000
822.78	124.2000
823.08	121.4000
823.38	122.1000
823.69	122.3000
823.99	123.0000
824.29	122.5000
824.59	121.8000
824.90	122.2000
825.20	122.0000
825.50	120.6000
825.80	122.5000
826.10	121.8000
826.41	121.2000
826.71	120.5000
827.01	121.0000
827.31	121.1000
827.61	120.4000
827.92	121.4000
828.22	120.4000
828.52	119.3000
828.82	119.4000
829.12	119.4000
829.42	121.3000
829.73	119.1000
830.03	119.0000
830.33	117.0000
830.63	115.6000
830.93	117.3000
831.23	117.3000
831.53	116.7000
831.83	115.6000
832.14	115.8000
832.44	117.5000
832.74	116.8000
833.04	117.6000
833.34	115.7000
833.64	114.7000
833.94	115.1000
834.24	116.1000
834.54	115.5000
834.84	115.1000
835.14	115.3000
835.44	114.8000
835.74	112.9000
836.04	113.1000
836.34	114.1000
836.64	113.1000
836.95	112.7000
837.25	113.3000
837.55	112.6000
837.85	112.5000
838.15	113.1000
838.45	113.0000
838.74	111.9000
839.04	113.0000
839.34	112.1000
839.64	112.4000
839.94	111.1000
840.24	111.4000
840.54	113.0000
840.84	111.7000
841.14	111.0000
841.44	112.2000
841.74	109.1000
842.04	112.6000
842.34	110.8000
842.64	110.3000
842.94	111.8000
843.24	109.7000
843.53	109.0000
843.83	110.0000
844.13	109.8000
844.43	110.4000
844.73	109.0000
845.03	109.2000
845.33	106.9000
845.63	108.2000
845.92	108.3000
846.22	108.6000
846.52	107.2000
846.82	108.5000
847.12	108.1000
847.42	106.1000
847.71	107.7000
848.01	108.0000
848.31	107.6000
848.61	107.6000
848.91	106.5000
849.20	106.5000
849.50	107.0000
849.80	106.7000
850.10	107.0000
850.39	105.8000
850.69	106.2000
850.99	106.6000
851.29	107.1000
851.59	105.5000
851.88	104.1000
852.18	106.2000
852.48	105.6000
852.77	105.3000
853.07	107.9000
853.37	104.9000
853.67	106.3000
853.96	106.5000
854.26	105.0000
854.56	104.3000
854.85	104.0000
855.15	105.6000
855.45	106.0000
855.74	103.5000
856.04	103.3000
856.34	104.3000
856.63	104.1000
856.93	104.0000
857.23	104.1000
857.52	103.4000
857.82	104.2000
858.11	104.2000
858.41	103.5000
858.71	103.3000
859.00	102.7000
859.30	103.6000
859.59	102.8000
859.89	103.8000
860.19	102.3000
860.48	102.4000
860.78	103.1000
861.07	102.2000
861.37	102.2000
861.66	101.4000
861.96	101.9000
862.26	101.3000
862.55	101.9000
862.85	101.9000
863.14	100.6000
863.44	102.4000
863.73	100.2000
864.03	101.9000
864.32	101.5000
864.62	101.4000
864.91	101.0000
865.21	100.4000
865.50	100.4000
865.80	99.0000
866.09	100.4000
866.39	99.6000
866.68	99.3000
866.97	100.5000
867.27	99.0000
867.56	96.7000
867.86	100.2000
868.15	99.5000
868.45	97.4000
868.74	97.2000
869.03	99.4000
869.33	99.7000
869.62	99.8000
869.92	97.5000
870.21	99.3000
870.50	98.5000
870.80	98.2000
871.09	98.3000
871.39	96.4000
871.68	96.8000
871.97	96.9000
872.27	99.0000
872.56	97.4000
872.85	97.2000
873.15	96.1000
873.44	97.4000
873.73	97.3000
874.03	97.3000
874.32	96.2000
874.61	95.1000
874.90	95.1000
875.20	96.0000
875.49	95.9000
875.78	97.2000
>>>>>End Spectral Data<<<<<
