OOIBase32 Version 1.0.0.8 Data File
++++++++++++++++++++++++++++++++++++
Date: Monday, January 14, 1980, 01:38:29
User: Valued Ocean Optics Customer
Spectrometer Serial Number: Unknown
Spectrometer Channel: Master
Integration Time (msec): 3
Spectra Averaged: 10
Boxcar Smoothing: 0
Correct for Electrical Dark: Disabled
Time Normalized: Disabled
Dual-beam Reference: Disabled
Reference Channel: Master
>>>>>Begin Spectral Data<<<<<
179.00	0.0000
179.38	0.0000
179.75	81.4000
180.13	82.1000
180.51	82.1000
180.88	82.2000
181.26	82.1000
181.64	80.9000
182.02	81.4000
182.39	81.9000
182.77	81.8000
183.15	82.6000
183.52	81.4000
183.90	81.6000
184.28	83.2000
184.65	82.4000
185.03	81.6000
185.41	82.6000
185.78	82.8000
186.16	80.6000
186.53	81.9000
186.91	83.7000
187.29	82.4000
187.66	82.2000
188.04	82.2000
188.42	82.6000
188.79	84.7000
189.17	83.6000
189.55	83.7000
189.92	83.2000
190.30	83.3000
190.67	83.3000
191.05	83.4000
191.43	83.2000
191.80	83.0000
192.18	84.6000
192.56	83.5000
192.93	84.6000
193.31	84.4000
193.68	83.6000
194.06	84.4000
194.44	84.4000
194.81	84.2000
195.19	83.0000
195.56	83.7000
195.94	83.9000
196.32	83.7000
196.69	83.8000
197.07	83.9000
197.44	84.4000
197.82	83.4000
198.19	84.0000
198.57	82.6000
198.95	84.2000
199.32	84.7000
199.70	85.1000
200.07	85.3000
200.45	83.9000
200.82	83.3000
201.20	84.8000
201.57	84.3000
201.95	85.9000
202.33	84.4000
202.70	85.1000
203.08	83.9000
203.45	84.3000
203.83	84.2000
204.20	85.5000
204.58	83.9000
204.95	83.2000
205.33	84.9000
205.70	83.5000
206.08	84.0000
206.45	83.7000
206.83	83.9000
207.20	84.3000
207.58	84.6000
207.95	84.6000
208.33	84.5000
208.70	85.7000
209.08	84.6000
209.45	84.2000
209.83	86.0000
210.20	83.3000
210.58	85.1000
210.95	85.2000
211.33	84.5000
211.70	87.1000
212.08	85.4000
212.45	85.2000
212.83	85.1000
213.20	85.2000
213.58	85.8000
213.95	86.1000
214.33	87.7000
214.70	86.0000
215.07	87.7000
215.45	87.1000
215.82	86.5000
216.20	85.2000
216.57	86.3000
216.95	85.5000
217.32	87.6000
217.70	86.2000
218.07	86.2000
218.44	86.7000
218.82	86.7000
219.19	86.4000
219.57	86.7000
219.94	86.5000
220.32	86.2000
220.69	86.2000
221.06	87.2000
221.44	87.3000
221.81	87.4000
222.19	87.7000
222.56	87.7000
222.93	87.6000
223.31	87.4000
223.68	88.0000
224.06	88.1000
224.43	87.3000
224.80	88.0000
225.18	85.9000
225.55	87.2000
225.92	86.1000
226.30	85.5000
226.67	86.2000
227.05	84.9000
227.42	85.8000
227.79	86.9000
228.17	85.7000
228.54	85.4000
228.91	85.9000
229.29	85.1000
229.66	87.0000
230.03	84.6000
230.41	87.5000
230.78	86.4000
231.15	88.3000
231.53	85.6000
231.90	86.1000
232.27	85.6000
232.65	86.2000
233.02	85.6000
233.39	87.4000
233.77	86.6000
234.14	86.1000
234.51	87.8000
234.89	86.4000
235.26	86.7000
235.63	87.0000
236.01	88.4000
236.38	87.4000
236.75	86.7000
237.12	87.8000
237.50	88.5000
237.87	85.9000
238.24	89.2000
238.62	88.5000
238.99	89.4000
239.36	89.1000
239.73	90.0000
240.11	88.8000
240.48	90.0000
240.85	91.2000
241.23	90.1000
241.60	90.4000
241.97	92.2000
242.34	91.6000
242.72	94.4000
243.09	93.9000
243.46	95.3000
243.83	98.4000
244.21	100.3000
244.58	103.0000
244.95	107.5000
245.32	109.4000
245.70	115.2000
246.07	119.7000
246.44	127.0000
246.81	133.9000
247.18	145.1000
247.56	156.1000
247.93	165.5000
248.30	178.4000
248.67	199.8000
249.04	221.1000
249.42	255.7000
249.79	311.1000
250.16	374.9000
250.53	457.9000
250.90	611.0000
251.28	934.8000
251.65	1604.8000
252.02	2981.8999
252.39	4095.0000
252.76	4095.0000
253.14	4095.0000
253.51	4095.0000
253.88	4095.0000
254.25	3231.2000
254.62	795.7000
254.99	516.4000
255.37	429.9000
255.74	359.0000
256.11	293.2000
256.48	246.3000
256.85	222.5000
257.22	190.7000
257.59	173.3000
257.97	147.2000
258.34	134.6000
258.71	127.8000
259.08	117.8000
259.45	110.0000
259.82	106.6000
260.19	103.9000
260.56	100.9000
260.94	98.0000
261.31	98.0000
261.68	96.2000
262.05	94.6000
262.42	94.6000
262.79	94.6000
263.16	95.7000
263.53	98.9000
263.90	104.3000
264.28	119.9000
264.65	127.0000
265.02	120.9000
265.39	106.1000
265.76	94.5000
266.13	92.7000
266.50	90.7000
266.87	91.0000
267.24	89.3000
267.61	88.6000
267.98	88.8000
268.35	90.4000
268.72	90.6000
269.09	91.4000
269.46	90.6000
269.84	90.4000
270.21	88.4000
270.58	89.7000
270.95	88.9000
271.32	88.9000
271.69	88.7000
272.06	88.0000
272.43	88.9000
272.80	88.8000
273.17	89.1000
273.54	91.0000
273.91	93.1000
274.28	96.2000
274.65	95.7000
275.02	95.3000
275.39	92.3000
275.76	89.7000
276.13	90.4000
276.50	91.6000
276.87	89.2000
277.24	91.7000
277.61	91.2000
277.98	92.2000
278.35	92.4000
278.72	95.1000
279.09	99.4000
279.46	105.1000
279.83	107.3000
280.20	106.7000
280.57	106.4000
280.94	111.5000
281.31	116.1000
281.67	121.9000
282.04	119.4000
282.41	110.7000
282.78	100.5000
283.15	95.6000
283.52	92.1000
283.89	91.8000
284.26	88.5000
284.63	90.9000
285.00	90.2000
285.37	91.2000
285.74	89.7000
286.11	91.2000
286.48	91.4000
286.85	92.2000
287.21	91.9000
287.58	96.4000
287.95	103.0000
288.32	115.2000
288.69	117.8000
289.06	110.6000
289.43	100.3000
289.80	92.5000
290.17	92.3000
290.54	93.8000
290.90	93.2000
291.27	96.4000
291.64	96.8000
292.01	98.2000
292.38	98.1000
292.75	98.1000
293.12	99.1000
293.48	103.4000
293.85	110.4000
294.22	120.9000
294.59	151.2000
294.96	227.6000
295.33	412.9000
295.70	688.9000
296.06	712.9000
296.43	553.1000
296.80	257.9000
297.17	139.8000
297.54	111.5000
297.91	104.7000
298.27	103.6000
298.64	101.4000
299.01	98.5000
299.38	98.7000
299.75	100.7000
300.11	108.1000
300.48	127.4000
300.85	176.8000
301.22	214.1000
301.59	209.7000
301.95	169.4000
302.32	119.8000
302.69	99.6000
303.06	96.0000
303.43	92.0000
303.79	94.6000
304.16	94.3000
304.53	94.1000
304.90	94.7000
305.26	93.0000
305.63	94.2000
306.00	96.3000
306.37	96.2000
306.73	97.5000
307.10	98.9000
307.47	101.7000
307.84	102.5000
308.20	106.9000
308.57	113.8000
308.94	117.9000
309.31	127.2000
309.67	138.7000
310.04	162.8000
310.41	221.9000
310.77	370.5000
311.14	815.8000
311.51	1470.8000
311.88	2273.5000
312.24	2415.2000
312.61	1903.2000
312.98	1117.7000
313.34	445.1000
313.71	216.3000
314.08	156.1000
314.44	135.6000
314.81	125.2000
315.18	119.5000
315.55	111.6000
315.91	109.3000
316.28	105.5000
316.65	103.2000
317.01	100.1000
317.38	98.1000
317.75	96.4000
318.11	96.7000
318.48	94.7000
318.84	95.2000
319.21	94.2000
319.58	92.4000
319.94	94.1000
320.31	94.0000
320.68	93.2000
321.04	92.5000
321.41	90.8000
321.78	91.7000
322.14	92.4000
322.51	91.4000
322.87	91.9000
323.24	91.1000
323.61	90.2000
323.97	90.0000
324.34	90.9000
324.70	91.6000
325.07	91.3000
325.44	90.8000
325.80	91.2000
326.17	90.6000
326.53	92.3000
326.90	91.3000
327.27	93.0000
327.63	90.7000
328.00	91.9000
328.36	90.6000
328.73	92.7000
329.09	92.4000
329.46	92.6000
329.83	91.6000
330.19	92.7000
330.56	91.8000
330.92	92.8000
331.29	92.9000
331.65	94.1000
332.02	98.5000
332.38	110.8000
332.75	140.5000
333.11	160.2000
333.48	162.4000
333.84	137.3000
334.21	114.0000
334.58	101.2000
334.94	94.4000
335.31	91.7000
335.67	91.2000
336.04	91.9000
336.40	92.1000
336.77	91.2000
337.13	92.0000
337.50	92.2000
337.86	91.7000
338.22	92.1000
338.59	92.0000
338.95	90.5000
339.32	90.6000
339.68	90.7000
340.05	91.0000
340.41	91.6000
340.78	91.0000
341.14	91.2000
341.51	90.0000
341.87	91.3000
342.24	90.6000
342.60	91.5000
342.96	92.0000
343.33	91.4000
343.69	91.1000
344.06	91.3000
344.42	90.8000
344.79	90.8000
345.15	91.9000
345.51	92.4000
345.88	92.4000
346.24	91.6000
346.61	92.6000
346.97	92.3000
347.34	92.7000
347.70	92.9000
348.06	90.9000
348.43	92.3000
348.79	91.5000
349.16	90.8000
349.52	91.2000
349.88	91.7000
350.25	93.1000
350.61	90.0000
350.97	93.2000
351.34	93.4000
351.70	93.2000
352.07	93.2000
352.43	91.8000
352.79	92.9000
353.16	93.0000
353.52	92.5000
353.88	93.3000
354.25	92.3000
354.61	94.8000
354.97	95.5000
355.34	96.2000
355.70	97.0000
356.06	96.8000
356.43	99.6000
356.79	100.2000
357.15	103.0000
357.52	106.8000
357.88	106.9000
358.24	108.9000
358.60	113.3000
358.97	113.8000
359.33	116.0000
359.69	119.5000
360.06	124.5000
360.42	129.9000
360.78	136.0000
361.14	146.6000
361.51	157.2000
361.87	177.1000
362.23	225.1000
362.60	348.6000
362.96	812.3000
363.32	2473.8999
363.68	4095.0000
364.05	4095.0000
364.41	4095.0000
364.77	4095.0000
365.13	3815.3999
365.50	1493.3000
365.86	811.8000
366.22	444.8000
366.58	274.9000
366.95	196.6000
367.31	163.8000
367.67	152.5000
368.03	142.4000
368.39	137.8000
368.76	132.6000
369.12	126.0000
369.48	122.9000
369.84	120.4000
370.20	120.7000
370.57	115.4000
370.93	112.8000
371.29	110.8000
371.65	112.0000
372.01	110.9000
372.38	109.3000
372.74	109.8000
373.10	108.3000
373.46	108.7000
373.82	109.1000
374.18	107.7000
374.55	109.5000
374.91	108.6000
375.27	107.7000
375.63	109.9000
375.99	108.1000
376.35	109.6000
376.71	110.3000
377.08	111.2000
377.44	111.9000
377.80	111.3000
378.16	111.4000
378.52	110.8000
378.88	111.9000
379.24	114.4000
379.60	112.1000
379.97	114.5000
380.33	114.4000
380.69	113.1000
381.05	114.8000
381.41	115.2000
381.77	115.9000
382.13	115.4000
382.49	116.4000
382.85	112.9000
383.21	116.5000
383.57	114.7000
383.94	115.7000
384.30	117.4000
384.66	117.2000
385.02	115.1000
385.38	117.8000
385.74	116.9000
386.10	118.3000
386.46	118.0000
386.82	117.4000
387.18	118.4000
387.54	117.9000
387.90	116.5000
388.26	119.9000
388.62	122.3000
388.98	123.1000
389.34	128.5000
389.70	128.0000
390.06	121.8000
390.42	121.0000
390.78	121.5000
391.14	122.6000
391.50	119.7000
391.86	120.3000
392.22	120.7000
392.58	119.6000
392.94	117.6000
393.30	119.7000
393.66	121.5000
394.02	122.0000
394.38	118.2000
394.74	122.0000
395.10	120.0000
395.46	122.2000
395.82	120.1000
396.18	121.9000
396.54	125.1000
396.90	130.7000
397.26	131.3000
397.62	128.7000
397.98	132.8000
398.34	127.3000
398.70	129.7000
399.05	129.2000
399.41	128.3000
399.77	132.1000
400.13	137.9000
400.49	137.1000
400.85	143.5000
401.21	141.7000
401.57	156.6000
401.93	177.6000
402.29	244.3000
402.65	653.6000
403.00	2176.3000
403.36	3455.7000
403.72	3661.6001
404.08	3122.8999
404.44	1554.5000
404.80	792.8000
405.16	370.3000
405.52	225.0000
405.87	224.7000
406.23	317.1000
406.59	342.6000
406.95	349.3000
407.31	271.5000
407.67	205.3000
408.03	161.3000
408.38	140.8000
408.74	134.8000
409.10	131.2000
409.46	125.2000
409.82	125.9000
410.17	123.9000
410.53	120.9000
410.89	122.4000
411.25	116.5000
411.61	117.4000
411.97	119.3000
412.32	116.4000
412.68	118.2000
413.04	116.4000
413.40	112.0000
413.75	115.8000
414.11	122.3000
414.47	124.9000
414.83	133.6000
415.19	129.1000
415.54	120.2000
415.90	119.7000
416.26	116.1000
416.62	115.8000
416.97	114.1000
417.33	117.1000
417.69	116.3000
418.05	118.5000
418.40	123.9000
418.76	129.7000
419.12	132.5000
419.48	125.1000
419.83	120.6000
420.19	112.1000
420.55	109.6000
420.90	111.9000
421.26	109.6000
421.62	107.6000
421.98	109.2000
422.33	110.1000
422.69	109.9000
423.05	111.1000
423.40	108.9000
423.76	107.6000
424.12	111.6000
424.47	113.7000
424.83	115.8000
425.19	115.2000
425.54	118.0000
425.90	121.7000
426.26	122.2000
426.61	119.9000
426.97	114.0000
427.33	118.8000
427.68	120.2000
428.04	125.8000
428.40	134.2000
428.75	137.4000
429.11	132.4000
429.47	138.3000
429.82	140.2000
430.18	140.7000
430.53	141.3000
430.89	145.7000
431.25	151.1000
431.60	160.4000
431.96	172.7000
432.31	198.3000
432.67	238.9000
433.03	318.1000
433.38	459.4000
433.74	1304.8000
434.09	4095.0000
434.45	4095.0000
434.81	4095.0000
435.16	4095.0000
435.52	4095.0000
435.87	4095.0000
436.23	1565.6000
436.58	516.0000
436.94	282.2000
437.30	210.5000
437.65	185.9000
438.01	164.4000
438.36	151.3000
438.72	145.3000
439.07	137.3000
439.43	133.8000
439.78	133.7000
440.14	128.9000
440.49	121.0000
440.85	118.3000
441.20	118.0000
441.56	114.6000
441.91	118.0000
442.27	109.6000
442.62	107.4000
442.98	108.1000
443.33	104.2000
443.69	105.6000
444.04	105.3000
444.40	102.3000
444.75	104.6000
445.11	103.8000
445.46	101.7000
445.82	102.0000
446.17	99.8000
446.53	100.3000
446.88	102.2000
447.23	100.5000
447.59	100.1000
447.94	97.7000
448.30	98.8000
448.65	98.7000
449.01	99.7000
449.36	98.9000
449.72	101.7000
450.07	102.0000
450.42	102.1000
450.78	99.9000
451.13	99.7000
451.49	99.4000
451.84	96.9000
452.19	99.3000
452.55	98.1000
452.90	98.3000
453.26	98.8000
453.61	100.2000
453.96	96.1000
454.32	98.5000
454.67	99.7000
455.02	97.5000
455.38	96.0000
455.73	97.5000
456.09	98.5000
456.44	98.4000
456.79	96.3000
457.15	97.3000
457.50	97.5000
457.85	98.0000
458.21	98.5000
458.56	99.0000
458.91	97.6000
459.27	95.5000
459.62	96.5000
459.97	95.7000
460.32	97.2000
460.68	98.3000
461.03	97.0000
461.38	97.1000
461.74	97.6000
462.09	99.1000
462.44	97.0000
462.80	95.3000
463.15	95.1000
463.50	95.7000
463.85	96.6000
464.21	96.7000
464.56	96.9000
464.91	95.8000
465.26	96.3000
465.62	93.4000
465.97	98.1000
466.32	96.5000
466.67	96.4000
467.03	96.3000
467.38	97.0000
467.73	96.0000
468.08	95.0000
468.44	98.3000
468.79	95.7000
469.14	96.1000
469.49	97.2000
469.85	96.0000
470.20	97.0000
470.55	97.1000
470.90	96.3000
471.25	95.7000
471.61	97.0000
471.96	98.6000
472.31	97.8000
472.66	94.4000
473.01	94.9000
473.36	96.8000
473.72	98.1000
474.07	98.1000
474.42	97.6000
474.77	97.7000
475.12	98.3000
475.47	98.7000
475.83	98.8000
476.18	99.0000
476.53	98.4000
476.88	98.0000
477.23	97.8000
477.58	98.0000
477.93	94.9000
478.28	97.8000
478.64	98.9000
478.99	97.3000
479.34	97.2000
479.69	98.9000
480.04	97.8000
480.39	99.2000
480.74	97.5000
481.09	98.3000
481.44	98.1000
481.79	98.9000
482.15	99.5000
482.50	99.5000
482.85	98.7000
483.20	97.9000
483.55	99.1000
483.90	98.0000
484.25	98.9000
484.60	95.4000
484.95	97.7000
485.30	98.4000
485.65	98.9000
486.00	99.6000
486.35	99.3000
486.70	98.9000
487.05	98.5000
487.40	99.1000
487.75	98.4000
488.10	98.6000
488.45	99.3000
488.80	96.3000
489.15	99.6000
489.50	100.6000
489.85	114.0000
490.20	121.4000
490.55	129.3000
490.90	122.3000
491.25	112.4000
491.60	107.7000
491.95	102.4000
492.30	99.4000
492.65	98.6000
493.00	96.9000
493.35	97.8000
493.70	98.2000
494.05	97.9000
494.40	98.0000
494.75	98.7000
495.10	97.8000
495.45	99.3000
495.80	96.6000
496.15	97.9000
496.50	96.9000
496.84	97.1000
497.19	97.4000
497.54	97.9000
497.89	96.4000
498.24	96.2000
498.59	97.8000
498.94	98.0000
499.29	98.3000
499.64	97.6000
499.99	98.2000
500.33	95.9000
500.68	96.3000
501.03	98.5000
501.38	98.2000
501.73	99.1000
502.08	98.5000
502.43	96.9000
502.77	96.2000
503.12	97.5000
503.47	94.6000
503.82	98.2000
504.17	97.8000
504.52	97.7000
504.86	96.6000
505.21	97.2000
505.56	97.0000
505.91	97.0000
506.26	96.0000
506.61	97.6000
506.95	97.2000
507.30	98.0000
507.65	96.6000
508.00	97.0000
508.35	96.4000
508.69	98.3000
509.04	97.3000
509.39	97.9000
509.74	97.3000
510.08	96.8000
510.43	96.2000
510.78	96.7000
511.13	96.1000
511.47	96.2000
511.82	95.2000
512.17	96.2000
512.52	97.8000
512.86	94.0000
513.21	95.4000
513.56	95.9000
513.91	96.6000
514.25	96.9000
514.60	97.5000
514.95	98.1000
515.30	97.9000
515.64	98.4000
515.99	96.7000
516.34	95.8000
516.68	95.5000
517.03	99.1000
517.38	97.0000
517.72	98.6000
518.07	96.6000
518.42	97.4000
518.76	97.7000
519.11	98.0000
519.46	98.0000
519.80	98.3000
520.15	99.3000
520.50	99.3000
520.84	98.2000
521.19	96.1000
521.54	98.1000
521.88	95.1000
522.23	96.5000
522.58	96.5000
522.92	97.1000
523.27	96.5000
523.61	97.1000
523.96	97.3000
524.31	97.5000
524.65	98.3000
525.00	97.4000
525.34	96.8000
525.69	95.8000
526.04	98.8000
526.38	97.8000
526.73	95.5000
527.07	97.3000
527.42	98.6000
527.76	96.9000
528.11	96.2000
528.46	97.0000
528.80	96.7000
529.15	96.6000
529.49	98.3000
529.84	98.0000
530.18	97.4000
530.53	97.8000
530.87	97.3000
531.22	97.9000
531.56	97.6000
531.91	99.2000
532.25	97.8000
532.60	96.9000
532.94	98.2000
533.29	98.2000
533.63	100.1000
533.98	99.5000
534.32	100.1000
534.67	100.9000
535.01	102.2000
535.36	101.3000
535.70	102.6000
536.05	101.9000
536.39	104.8000
536.74	104.2000
537.08	106.9000
537.43	108.0000
537.77	110.8000
538.12	112.5000
538.46	114.5000
538.80	115.7000
539.15	124.6000
539.49	131.5000
539.84	136.1000
540.18	139.1000
540.53	138.3000
540.87	137.8000
541.21	139.9000
541.56	144.3000
541.90	151.9000
542.25	156.7000
542.59	170.1000
542.93	189.6000
543.28	223.9000
543.62	305.1000
543.97	1069.3000
544.31	4095.0000
544.65	4095.0000
545.00	4095.0000
545.34	4095.0000
545.68	4095.0000
546.03	4095.0000
546.37	4095.0000
546.71	3773.8999
547.06	956.0000
547.40	445.3000
547.74	287.5000
548.09	215.8000
548.43	181.0000
548.77	163.1000
549.12	147.1000
549.46	137.5000
549.80	132.6000
550.15	130.4000
550.49	127.1000
550.83	123.6000
551.17	120.0000
551.52	116.2000
551.86	112.7000
552.20	111.3000
552.55	109.8000
552.89	109.3000
553.23	105.8000
553.57	107.3000
553.92	104.6000
554.26	104.4000
554.60	102.4000
554.94	105.2000
555.29	102.5000
555.63	100.4000
555.97	101.2000
556.31	99.8000
556.66	99.4000
557.00	98.7000
557.34	98.2000
557.68	97.9000
558.02	96.9000
558.37	96.9000
558.71	97.1000
559.05	98.3000
559.39	96.8000
559.73	99.7000
560.08	97.8000
560.42	96.6000
560.76	95.5000
561.10	95.5000
561.44	95.8000
561.78	96.6000
562.13	94.9000
562.47	96.3000
562.81	96.1000
563.15	95.6000
563.49	95.3000
563.83	96.2000
564.17	95.5000
564.52	96.2000
564.86	96.3000
565.20	96.3000
565.54	95.1000
565.88	94.6000
566.22	96.7000
566.56	97.2000
566.90	97.3000
567.24	97.4000
567.59	97.2000
567.93	96.4000
568.27	96.5000
568.61	98.0000
568.95	97.2000
569.29	96.9000
569.63	97.3000
569.97	99.0000
570.31	100.3000
570.65	99.0000
570.99	102.3000
571.33	103.2000
571.67	102.7000
572.01	102.9000
572.35	103.5000
572.69	105.0000
573.03	108.5000
573.37	108.2000
573.71	108.6000
574.05	112.7000
574.39	118.3000
574.73	146.6000
575.07	593.5000
575.41	1622.7000
575.75	2206.8000
576.09	2436.5000
576.43	1770.4000
576.77	1281.3000
577.11	1230.5000
577.45	2050.3000
577.79	2484.2000
578.13	2720.1001
578.47	2073.3999
578.81	1448.6000
579.15	1045.1000
579.49	706.8000
579.83	407.6000
580.17	237.0000
580.51	161.2000
580.85	131.7000
581.19	119.1000
581.53	112.1000
581.87	109.7000
582.20	106.5000
582.54	102.8000
582.88	101.9000
583.22	100.6000
583.56	100.0000
583.90	99.4000
584.24	99.5000
584.58	99.8000
584.92	96.9000
585.25	97.0000
585.59	97.8000
585.93	98.1000
586.27	97.5000
586.61	96.0000
586.95	95.1000
587.29	96.3000
587.62	95.4000
587.96	95.0000
588.30	96.3000
588.64	95.8000
588.98	94.6000
589.31	95.7000
589.65	94.9000
589.99	94.6000
590.33	94.9000
590.67	93.5000
591.01	95.3000
591.34	94.9000
591.68	95.0000
592.02	92.9000
592.36	92.7000
592.69	93.7000
593.03	92.7000
593.37	93.2000
593.71	93.0000
594.04	93.5000
594.38	93.1000
594.72	92.8000
595.06	93.0000
595.39	93.7000
595.73	93.7000
596.07	92.2000
596.41	92.1000
596.74	95.1000
597.08	92.5000
597.42	91.6000
597.76	91.4000
598.09	91.3000
598.43	93.6000
598.77	92.6000
599.10	92.0000
599.44	91.6000
599.78	93.9000
600.11	91.5000
600.45	91.7000
600.79	92.3000
601.12	91.5000
601.46	93.7000
601.80	96.0000
602.13	95.4000
602.47	96.7000
602.81	96.3000
603.14	94.9000
603.48	96.0000
603.82	95.2000
604.15	92.8000
604.49	92.8000
604.82	94.2000
605.16	93.9000
605.50	92.5000
605.83	93.7000
606.17	91.5000
606.50	92.4000
606.84	93.5000
607.18	93.6000
607.51	91.9000
607.85	93.1000
608.18	91.2000
608.52	91.9000
608.86	91.5000
609.19	92.0000
609.53	92.8000
609.86	92.1000
610.20	91.9000
610.53	91.4000
610.87	93.6000
611.20	93.6000
611.54	94.8000
611.87	93.1000
612.21	93.8000
612.54	92.5000
612.88	92.7000
613.21	91.9000
613.55	91.6000
613.88	92.6000
614.22	91.3000
614.55	91.9000
614.89	92.0000
615.22	91.9000
615.56	91.3000
615.89	92.3000
616.23	91.6000
616.56	91.3000
616.90	92.2000
617.23	90.8000
617.57	91.1000
617.90	90.0000
618.24	91.2000
618.57	91.4000
618.90	91.3000
619.24	90.1000
619.57	90.5000
619.91	90.4000
620.24	91.6000
620.58	91.5000
620.91	90.8000
621.24	92.3000
621.58	90.9000
621.91	92.7000
622.25	91.3000
622.58	91.1000
622.91	91.3000
623.25	92.1000
623.58	91.2000
623.91	90.8000
624.25	90.7000
624.58	89.8000
624.92	90.1000
625.25	89.0000
625.58	89.7000
625.92	89.3000
626.25	88.9000
626.58	91.2000
626.92	90.5000
627.25	91.2000
627.58	90.2000
627.91	89.0000
628.25	88.0000
628.58	89.7000
628.91	91.5000
629.25	89.9000
629.58	88.4000
629.91	90.5000
630.25	89.9000
630.58	88.9000
630.91	89.3000
631.24	88.3000
631.58	88.4000
631.91	89.7000
632.24	88.5000
632.57	90.4000
632.91	90.1000
633.24	89.9000
633.57	89.0000
633.90	89.1000
634.24	88.2000
634.57	88.2000
634.90	88.1000
635.23	89.2000
635.56	90.8000
635.90	89.2000
636.23	89.1000
636.56	90.9000
636.89	91.5000
637.22	91.3000
637.56	87.8000
637.89	88.7000
638.22	88.7000
638.55	89.9000
638.88	87.7000
639.21	89.4000
639.55	89.0000
639.88	88.7000
640.21	90.6000
640.54	92.6000
640.87	92.3000
641.20	90.1000
641.53	91.3000
641.87	90.4000
642.20	89.9000
642.53	88.3000
642.86	88.3000
643.19	89.0000
643.52	88.8000
643.85	87.6000
644.18	88.5000
644.51	89.3000
644.84	88.2000
645.18	87.7000
645.51	87.8000
645.84	88.2000
646.17	89.7000
646.50	87.8000
646.83	88.2000
647.16	88.4000
647.49	87.9000
647.82	88.4000
648.15	88.2000
648.48	89.3000
648.81	88.5000
649.14	89.5000
649.47	87.7000
649.80	88.5000
650.13	87.0000
650.46	87.1000
650.79	87.6000
651.12	87.4000
651.45	87.7000
651.78	87.8000
652.11	88.9000
652.44	87.9000
652.77	86.8000
653.10	88.1000
653.43	88.3000
653.76	88.2000
654.09	89.0000
654.42	89.1000
654.75	88.3000
655.08	87.6000
655.41	87.9000
655.74	87.4000
656.07	88.1000
656.39	89.1000
656.72	88.5000
657.05	87.9000
657.38	87.0000
657.71	87.6000
658.04	87.2000
658.37	86.6000
658.70	88.1000
659.03	86.7000
659.36	87.9000
659.68	88.0000
660.01	88.6000
660.34	87.0000
660.67	87.4000
661.00	88.5000
661.33	88.0000
661.66	87.2000
661.98	89.4000
662.31	88.5000
662.64	88.1000
662.97	87.6000
663.30	88.1000
663.63	86.9000
663.95	85.2000
664.28	87.4000
664.61	85.7000
664.94	87.6000
665.27	87.7000
665.59	88.5000
665.92	88.1000
666.25	96.5000
666.58	101.9000
666.91	104.7000
667.23	104.9000
667.56	98.3000
667.89	96.5000
668.22	93.5000
668.54	91.9000
668.87	90.4000
669.20	88.9000
669.53	87.6000
669.85	87.1000
670.18	88.3000
670.51	89.1000
670.83	89.2000
671.16	90.4000
671.49	87.9000
671.82	88.1000
672.14	89.6000
672.47	88.6000
672.80	87.9000
673.12	87.6000
673.45	89.0000
673.78	89.8000
674.10	91.9000
674.43	91.6000
674.76	91.6000
675.08	90.8000
675.41	91.3000
675.74	90.1000
676.06	89.0000
676.39	89.1000
676.72	89.2000
677.04	86.4000
677.37	86.5000
677.69	87.9000
678.02	88.8000
678.35	87.6000
678.67	86.5000
679.00	87.9000
679.32	89.4000
679.65	87.2000
679.98	87.6000
680.30	89.4000
680.63	87.7000
680.95	87.1000
681.28	87.5000
681.60	88.7000
681.93	87.4000
682.26	87.7000
682.58	86.8000
682.91	88.1000
683.23	89.0000
683.56	87.8000
683.88	87.8000
684.21	87.8000
684.53	87.5000
684.86	88.3000
685.18	87.2000
685.51	88.4000
685.83	90.8000
686.16	92.5000
686.48	91.2000
686.81	92.4000
687.13	91.8000
687.46	90.9000
687.78	90.4000
688.11	89.8000
688.43	91.3000
688.76	90.8000
689.08	92.0000
689.41	96.6000
689.73	102.1000
690.05	104.5000
690.38	102.3000
690.70	100.5000
691.03	97.7000
691.35	95.5000
691.68	95.7000
692.00	97.2000
692.32	97.7000
692.65	96.6000
692.97	97.1000
693.29	99.5000
693.62	101.0000
693.94	103.4000
694.27	112.3000
694.59	154.2000
694.91	706.9000
695.24	1818.7000
695.56	2591.7000
695.88	3017.1001
696.21	2561.8999
696.53	1915.4000
696.85	1499.4000
697.18	1178.6000
697.50	866.2000
697.82	568.4000
698.15	344.5000
698.47	213.6000
698.79	153.3000
699.12	123.7000
699.44	109.8000
699.76	102.7000
700.09	98.0000
700.41	93.8000
700.73	92.7000
701.05	91.8000
701.38	92.9000
701.70	94.5000
702.02	94.5000
702.34	94.2000
702.67	93.8000
702.99	93.1000
703.31	91.7000
703.63	93.1000
703.96	91.3000
704.28	91.9000
704.60	92.7000
704.92	117.5000
705.25	265.3000
705.57	447.5000
705.89	577.7000
706.21	619.1000
706.53	506.0000
706.86	395.4000
707.18	323.7000
707.50	270.5000
707.82	216.2000
708.14	169.6000
708.46	132.2000
708.79	109.5000
709.11	97.8000
709.43	94.7000
709.75	91.5000
710.07	91.3000
710.39	90.3000
710.71	89.8000
711.04	88.7000
711.36	90.0000
711.68	89.3000
712.00	88.0000
712.32	87.8000
712.64	87.9000
712.96	92.9000
713.28	117.0000
713.60	144.6000
713.92	161.2000
714.24	167.2000
714.57	147.8000
714.89	134.0000
715.21	121.9000
715.53	115.1000
715.85	107.2000
716.17	99.8000
716.49	94.9000
716.81	91.0000
717.13	90.7000
717.45	88.0000
717.77	87.4000
718.09	88.2000
718.41	88.0000
718.73	86.7000
719.05	86.0000
719.37	86.7000
719.69	89.1000
720.01	88.4000
720.33	87.7000
720.65	88.2000
720.97	89.0000
721.29	87.0000
721.61	88.0000
721.93	88.2000
722.25	86.6000
722.57	87.8000
722.89	86.9000
723.21	88.1000
723.52	89.4000
723.84	88.8000
724.16	87.7000
724.48	87.3000
724.80	90.8000
725.12	91.1000
725.44	100.5000
725.76	203.8000
726.08	410.0000
726.40	571.8000
726.72	670.3000
727.03	599.0000
727.35	462.1000
727.67	358.7000
727.99	291.3000
728.31	237.5000
728.63	194.5000
728.95	154.8000
729.26	123.7000
729.58	106.0000
729.90	96.6000
730.22	92.2000
730.54	91.6000
730.86	90.3000
731.17	89.5000
731.49	89.1000
731.81	89.1000
732.13	89.2000
732.45	88.8000
732.76	88.4000
733.08	88.8000
733.40	88.3000
733.72	88.9000
734.03	90.8000
734.35	91.1000
734.67	90.6000
734.99	91.7000
735.30	92.1000
735.62	93.8000
735.94	94.7000
736.26	97.6000
736.57	111.5000
736.89	254.3000
737.21	534.3000
737.53	774.0000
737.84	919.9000
738.16	823.6000
738.48	625.9000
738.79	464.1000
739.11	354.1000
739.43	290.0000
739.74	246.1000
740.06	200.1000
740.38	154.6000
740.69	123.6000
741.01	103.9000
741.33	97.2000
741.64	95.1000
741.96	93.5000
742.28	92.1000
742.59	92.6000
742.91	91.9000
743.23	91.8000
743.54	91.2000
743.86	91.4000
744.17	89.7000
744.49	90.5000
744.81	91.1000
745.12	89.4000
745.44	90.4000
745.75	93.5000
746.07	93.8000
746.38	95.1000
746.70	94.8000
747.02	96.5000
747.33	96.7000
747.65	96.7000
747.96	99.1000
748.28	102.3000
748.59	126.0000
748.91	331.6000
749.22	745.0000
749.54	1104.6000
749.85	1345.5000
750.17	1398.2000
750.48	1303.0000
750.80	1206.3000
751.11	1092.5000
751.43	864.7000
751.74	657.5000
752.06	503.5000
752.37	388.8000
752.69	307.0000
753.00	247.2000
753.32	193.3000
753.63	154.6000
753.95	125.9000
754.26	112.5000
754.58	104.7000
754.89	101.3000
755.20	100.8000
755.52	99.3000
755.83	99.0000
756.15	99.8000
756.46	99.9000
756.78	102.7000
757.09	104.0000
757.40	108.3000
757.72	111.2000
758.03	112.4000
758.34	116.9000
758.66	121.4000
758.97	126.9000
759.29	147.3000
759.60	249.7000
759.91	633.5000
760.23	936.0000
760.54	1112.7000
760.85	1098.9000
761.17	829.5000
761.48	646.0000
761.79	633.5000
762.11	1618.8000
762.42	3448.3999
762.73	4095.0000
763.05	4095.0000
763.36	4095.0000
763.67	4095.0000
763.98	2607.6001
764.30	1627.9000
764.61	1366.9000
764.92	1201.1000
765.23	1000.0000
765.55	712.4000
765.86	449.2000
766.17	282.5000
766.48	191.7000
766.80	148.8000
767.11	128.5000
767.42	113.2000
767.73	108.9000
768.05	106.3000
768.36	105.5000
768.67	103.1000
768.98	102.9000
769.29	103.0000
769.61	102.0000
769.92	104.2000
770.23	107.9000
770.54	120.6000
770.85	281.9000
771.17	1101.8000
771.48	1864.7000
771.79	2329.7000
772.10	2310.3000
772.41	1642.1000
772.72	1129.3000
773.03	844.2000
773.35	703.7000
773.66	619.5000
773.97	562.1000
774.28	473.5000
774.59	352.1000
774.90	239.8000
775.21	166.0000
775.52	129.4000
775.83	110.9000
776.15	101.1000
776.46	96.9000
776.77	94.6000
777.08	90.5000
777.39	89.7000
777.70	88.4000
778.01	88.2000
778.32	89.7000
778.63	89.6000
778.94	88.1000
779.25	86.6000
779.56	86.6000
779.87	86.5000
780.18	86.4000
780.49	86.0000
780.80	86.6000
781.11	87.5000
781.42	86.2000
781.73	87.3000
782.04	86.7000
782.35	85.9000
782.66	86.9000
782.97	86.5000
783.28	86.8000
783.59	87.6000
783.90	86.1000
784.21	86.4000
784.52	86.3000
784.83	86.5000
785.14	84.8000
785.45	87.9000
785.76	85.6000
786.06	86.6000
786.37	84.6000
786.68	85.3000
786.99	85.5000
787.30	85.4000
787.61	85.8000
787.92	86.3000
788.23	85.8000
788.54	86.8000
788.84	86.4000
789.15	87.2000
789.46	85.0000
789.77	86.0000
790.08	85.4000
790.39	86.2000
790.70	87.7000
791.00	87.5000
791.31	86.7000
791.62	87.8000
791.93	87.4000
792.24	90.1000
792.54	91.0000
792.85	92.3000
793.16	107.3000
793.47	259.1000
793.78	485.5000
794.08	637.9000
794.39	707.1000
794.70	593.8000
795.01	452.3000
795.31	366.0000
795.62	313.9000
795.93	283.3000
796.24	263.6000
796.54	246.6000
796.85	227.7000
797.16	190.2000
797.47	154.1000
797.77	125.6000
798.08	109.6000
798.39	102.2000
798.69	101.6000
799.00	119.2000
799.31	243.0000
799.62	401.2000
799.92	530.9000
800.23	727.8000
800.54	782.4000
800.84	783.6000
801.15	745.2000
801.46	602.9000
801.76	499.9000
802.07	426.5000
802.37	376.9000
802.68	342.3000
802.99	304.2000
803.29	263.3000
803.60	224.2000
803.91	182.7000
804.21	148.0000
804.52	119.7000
804.82	105.4000
805.13	98.6000
805.44	93.3000
805.74	91.2000
806.05	90.9000
806.35	89.8000
806.66	89.5000
806.96	90.2000
807.27	90.6000
807.57	91.4000
807.88	92.6000
808.19	93.3000
808.49	96.4000
808.80	127.3000
809.10	256.3000
809.41	415.3000
809.71	528.2000
810.02	679.9000
810.32	979.7000
810.63	1276.0000
810.93	1480.7000
811.24	1507.0000
811.54	1262.5000
811.85	1029.3000
812.15	872.3000
812.45	755.1000
812.76	662.8000
813.06	573.2000
813.37	506.3000
813.67	460.4000
813.98	376.2000
814.28	276.3000
814.58	199.1000
814.89	148.1000
815.19	121.3000
815.50	107.6000
815.80	98.5000
816.11	96.4000
816.41	91.7000
816.71	92.0000
817.02	89.2000
817.32	88.7000
817.62	88.5000
817.93	88.2000
818.23	87.9000
818.53	88.9000
818.84	87.7000
819.14	86.5000
819.44	86.3000
819.75	86.5000
820.05	86.2000
820.35	85.4000
820.66	85.5000
820.96	86.4000
821.26	87.3000
821.57	86.2000
821.87	85.6000
822.17	86.7000
822.48	86.5000
822.78	87.2000
823.08	87.2000
823.38	88.5000
823.69	89.4000
823.99	90.3000
824.29	92.0000
824.59	99.1000
824.90	136.7000
825.20	275.1000
825.50	494.1000
825.80	650.4000
826.10	747.5000
826.41	709.8000
826.71	601.4000
827.01	532.5000
827.31	476.3000
827.61	424.8000
827.92	388.9000
828.22	359.0000
828.52	340.3000
828.82	316.2000
829.12	271.5000
829.42	214.0000
829.73	162.0000
830.03	127.8000
830.33	110.9000
830.63	100.4000
830.93	94.3000
831.23	90.3000
831.53	89.5000
831.83	87.4000
832.14	87.1000
832.44	86.1000
832.74	84.7000
833.04	85.6000
833.34	86.6000
833.64	86.3000
833.94	84.9000
834.24	85.4000
834.54	86.2000
834.84	84.2000
835.14	85.2000
835.44	84.4000
835.74	85.4000
836.04	85.0000
836.34	85.2000
836.64	83.9000
836.95	85.6000
837.25	84.4000
837.55	85.3000
837.85	86.8000
838.15	86.2000
838.45	86.6000
838.74	88.7000
839.04	89.9000
839.34	101.2000
839.64	138.2000
839.94	202.0000
840.24	259.5000
840.54	302.4000
840.84	318.5000
841.14	322.1000
841.44	381.3000
841.74	466.8000
842.04	524.1000
842.34	560.1000
842.64	531.2000
842.94	487.6000
843.24	455.9000
843.53	412.6000
843.83	370.5000
844.13	324.9000
844.43	292.3000
844.73	271.1000
845.03	249.2000
845.33	218.5000
845.63	180.1000
845.92	141.8000
846.22	117.6000
846.52	102.8000
846.82	95.0000
847.12	92.6000
847.42	89.3000
847.71	87.1000
848.01	88.4000
848.31	86.8000
848.61	87.1000
848.91	85.7000
849.20	84.8000
849.50	86.2000
849.80	87.4000
850.10	85.1000
850.39	87.3000
850.69	89.5000
850.99	101.0000
851.29	124.2000
851.59	153.1000
851.88	173.5000
852.18	187.0000
852.48	187.6000
852.77	175.3000
853.07	171.1000
853.37	162.6000
853.67	157.5000
853.96	152.4000
854.26	147.8000
854.56	145.2000
854.85	141.1000
855.15	130.9000
855.45	117.6000
855.74	104.2000
856.04	96.3000
856.34	92.1000
856.63	88.8000
856.93	86.6000
857.23	84.5000
857.52	84.0000
857.82	84.4000
858.11	84.4000
858.41	84.0000
858.71	83.8000
859.00	83.0000
859.30	83.0000
859.59	83.4000
859.89	83.6000
860.19	84.0000
860.48	84.1000
860.78	83.1000
861.07	84.0000
861.37	83.6000
861.66	83.9000
861.96	82.3000
862.26	84.1000
862.55	84.6000
862.85	84.3000
863.14	83.1000
863.44	83.9000
863.73	83.2000
864.03	83.6000
864.32	83.2000
864.62	82.8000
864.91	83.7000
865.21	82.7000
865.50	84.7000
865.80	85.2000
866.09	85.4000
866.39	88.5000
866.68	93.0000
866.97	94.7000
867.27	95.4000
867.56	95.1000
867.86	93.8000
868.15	93.7000
868.45	92.6000
868.74	91.4000
869.03	91.6000
869.33	92.4000
869.62	91.2000
869.92	90.4000
870.21	88.4000
870.50	88.2000
870.80	84.9000
871.09	84.1000
871.39	84.2000
871.68	83.8000
871.97	83.3000
872.27	83.1000
872.56	83.7000
872.85	82.8000
873.15	83.7000
873.44	82.5000
873.73	82.7000
874.03	82.6000
874.32	82.0000
874.61	83.3000
874.90	83.8000
875.20	82.8000
875.49	83.5000
875.78	84.3000
>>>>>End Spectral Data<<<<<
