OOIBase32 Version 1.0.0.8 Data File
++++++++++++++++++++++++++++++++++++
Date: Monday, January 14, 1980, 01:24:48
User: Valued Ocean Optics Customer
Spectrometer Serial Number: Unknown
Spectrometer Channel: Master
Integration Time (msec): 3
Spectra Averaged: 10
Boxcar Smoothing: 0
Correct for Electrical Dark: Disabled
Time Normalized: Disabled
Dual-beam Reference: Disabled
Reference Channel: Master
>>>>>Begin Spectral Data<<<<<
179.00	0.0000
179.38	0.0000
179.75	86.1000
180.13	86.4000
180.51	88.0000
180.88	88.1000
181.26	86.0000
181.64	87.9000
182.02	88.0000
182.39	86.6000
182.77	86.5000
183.15	87.0000
183.52	87.0000
183.90	87.6000
184.28	87.1000
184.65	87.3000
185.03	86.6000
185.41	87.1000
185.78	85.8000
186.16	87.5000
186.53	86.7000
186.91	86.4000
187.29	86.4000
187.66	86.2000
188.04	85.7000
188.42	88.5000
188.79	87.6000
189.17	88.2000
189.55	86.8000
189.92	87.0000
190.30	87.6000
190.67	87.1000
191.05	87.3000
191.43	88.6000
191.80	89.2000
192.18	87.8000
192.56	87.7000
192.93	87.9000
193.31	87.3000
193.68	88.2000
194.06	87.1000
194.44	89.2000
194.81	87.9000
195.19	87.6000
195.56	87.7000
195.94	87.3000
196.32	89.0000
196.69	87.2000
197.07	86.6000
197.44	87.4000
197.82	86.5000
198.19	88.4000
198.57	88.9000
198.95	87.8000
199.32	88.0000
199.70	87.0000
200.07	88.4000
200.45	89.0000
200.82	88.5000
201.20	86.9000
201.57	87.2000
201.95	87.2000
202.33	88.0000
202.70	89.0000
203.08	88.4000
203.45	87.4000
203.83	87.9000
204.20	87.9000
204.58	89.1000
204.95	87.8000
205.33	88.2000
205.70	87.7000
206.08	86.4000
206.45	87.4000
206.83	87.1000
207.20	88.0000
207.58	88.3000
207.95	88.8000
208.33	87.4000
208.70	88.3000
209.08	89.2000
209.45	88.0000
209.83	89.7000
210.20	87.9000
210.58	89.3000
210.95	88.5000
211.33	88.3000
211.70	87.9000
212.08	88.0000
212.45	89.5000
212.83	88.2000
213.20	88.1000
213.58	87.3000
213.95	88.4000
214.33	89.3000
214.70	88.3000
215.07	89.1000
215.45	88.7000
215.82	88.0000
216.20	88.8000
216.57	87.5000
216.95	88.6000
217.32	88.4000
217.70	88.7000
218.07	87.5000
218.44	88.6000
218.82	88.5000
219.19	89.1000
219.57	88.8000
219.94	88.5000
220.32	87.9000
220.69	89.1000
221.06	87.0000
221.44	88.6000
221.81	89.5000
222.19	88.7000
222.56	88.2000
222.93	89.3000
223.31	88.3000
223.68	88.7000
224.06	89.5000
224.43	88.9000
224.80	89.8000
225.18	88.1000
225.55	89.1000
225.92	88.8000
226.30	89.0000
226.67	89.3000
227.05	89.3000
227.42	87.8000
227.79	89.0000
228.17	87.9000
228.54	90.4000
228.91	89.0000
229.29	88.8000
229.66	87.9000
230.03	88.1000
230.41	88.6000
230.78	88.5000
231.15	89.1000
231.53	88.4000
231.90	89.5000
232.27	88.4000
232.65	89.3000
233.02	87.6000
233.39	89.5000
233.77	88.3000
234.14	87.5000
234.51	87.7000
234.89	89.2000
235.26	89.6000
235.63	88.8000
236.01	88.1000
236.38	88.8000
236.75	90.4000
237.12	90.5000
237.50	88.1000
237.87	87.9000
238.24	88.5000
238.62	88.5000
238.99	88.7000
239.36	88.9000
239.73	88.9000
240.11	89.1000
240.48	89.0000
240.85	88.8000
241.23	87.8000
241.60	87.8000
241.97	87.3000
242.34	89.9000
242.72	88.2000
243.09	87.5000
243.46	87.8000
243.83	88.7000
244.21	87.2000
244.58	88.7000
244.95	88.5000
245.32	87.5000
245.70	89.1000
246.07	89.3000
246.44	88.0000
246.81	89.4000
247.18	87.7000
247.56	89.1000
247.93	88.1000
248.30	87.8000
248.67	88.3000
249.04	88.6000
249.42	89.4000
249.79	90.0000
250.16	88.5000
250.53	88.8000
250.90	88.2000
251.28	88.4000
251.65	87.8000
252.02	88.7000
252.39	87.5000
252.76	88.2000
253.14	87.0000
253.51	88.9000
253.88	88.7000
254.25	88.1000
254.62	88.6000
254.99	89.1000
255.37	88.2000
255.74	88.0000
256.11	89.4000
256.48	89.1000
256.85	89.1000
257.22	90.0000
257.59	88.8000
257.97	89.1000
258.34	89.6000
258.71	90.3000
259.08	90.2000
259.45	90.3000
259.82	91.6000
260.19	90.7000
260.56	91.7000
260.94	91.9000
261.31	92.2000
261.68	92.6000
262.05	93.5000
262.42	92.8000
262.79	93.7000
263.16	91.9000
263.53	93.3000
263.90	92.3000
264.28	94.5000
264.65	96.2000
265.02	98.5000
265.39	96.3000
265.76	96.9000
266.13	97.5000
266.50	99.0000
266.87	99.4000
267.24	98.6000
267.61	99.6000
267.98	98.8000
268.35	101.8000
268.72	102.9000
269.09	102.8000
269.46	101.5000
269.84	101.8000
270.21	101.6000
270.58	102.9000
270.95	104.9000
271.32	102.6000
271.69	106.5000
272.06	105.4000
272.43	105.2000
272.80	105.1000
273.17	105.5000
273.54	106.6000
273.91	106.1000
274.28	105.7000
274.65	106.3000
275.02	106.5000
275.39	106.2000
275.76	105.4000
276.13	105.0000
276.50	108.7000
276.87	108.8000
277.24	108.5000
277.61	110.1000
277.98	109.1000
278.35	107.7000
278.72	108.6000
279.09	107.3000
279.46	110.7000
279.83	108.9000
280.20	107.6000
280.57	109.8000
280.94	110.7000
281.31	110.4000
281.67	109.4000
282.04	111.0000
282.41	111.7000
282.78	111.1000
283.15	112.9000
283.52	114.3000
283.89	114.3000
284.26	112.6000
284.63	113.9000
285.00	115.0000
285.37	115.3000
285.74	116.0000
286.11	114.2000
286.48	115.8000
286.85	116.0000
287.21	116.6000
287.58	114.3000
287.95	115.4000
288.32	114.7000
288.69	118.4000
289.06	117.9000
289.43	117.9000
289.80	118.4000
290.17	117.7000
290.54	118.1000
290.90	119.3000
291.27	118.0000
291.64	117.5000
292.01	117.7000
292.38	118.3000
292.75	117.8000
293.12	117.3000
293.48	121.0000
293.85	119.5000
294.22	120.4000
294.59	120.7000
294.96	118.3000
295.33	119.2000
295.70	118.3000
296.06	117.5000
296.43	118.6000
296.80	116.8000
297.17	119.1000
297.54	117.4000
297.91	119.4000
298.27	121.0000
298.64	122.0000
299.01	120.0000
299.38	120.1000
299.75	121.1000
300.11	119.3000
300.48	119.6000
300.85	122.8000
301.22	122.5000
301.59	121.9000
301.95	121.4000
302.32	120.9000
302.69	118.3000
303.06	121.7000
303.43	123.1000
303.79	121.2000
304.16	122.8000
304.53	123.9000
304.90	123.6000
305.26	125.2000
305.63	124.2000
306.00	123.4000
306.37	122.2000
306.73	120.5000
307.10	123.8000
307.47	125.8000
307.84	124.2000
308.20	124.3000
308.57	124.5000
308.94	123.2000
309.31	123.5000
309.67	124.0000
310.04	127.7000
310.41	124.4000
310.77	122.8000
311.14	121.6000
311.51	123.4000
311.88	124.0000
312.24	123.4000
312.61	122.7000
312.98	125.2000
313.34	124.8000
313.71	127.4000
314.08	126.3000
314.44	127.3000
314.81	126.4000
315.18	124.4000
315.55	125.8000
315.91	126.8000
316.28	126.6000
316.65	126.0000
317.01	128.8000
317.38	127.0000
317.75	126.4000
318.11	125.7000
318.48	126.3000
318.84	126.7000
319.21	130.3000
319.58	127.2000
319.94	128.2000
320.31	128.4000
320.68	127.7000
321.04	129.8000
321.41	131.2000
321.78	126.9000
322.14	130.4000
322.51	129.6000
322.87	130.6000
323.24	132.2000
323.61	128.7000
323.97	129.5000
324.34	130.2000
324.70	129.4000
325.07	128.5000
325.44	129.7000
325.80	131.2000
326.17	131.4000
326.53	132.2000
326.90	130.1000
327.27	133.4000
327.63	133.4000
328.00	133.2000
328.36	133.0000
328.73	134.2000
329.09	133.7000
329.46	135.4000
329.83	134.5000
330.19	132.3000
330.56	133.6000
330.92	133.8000
331.29	132.7000
331.65	135.5000
332.02	134.7000
332.38	135.4000
332.75	137.2000
333.11	135.8000
333.48	137.3000
333.84	139.1000
334.21	139.5000
334.58	137.8000
334.94	136.0000
335.31	137.3000
335.67	139.1000
336.04	140.3000
336.40	138.6000
336.77	137.9000
337.13	140.7000
337.50	137.3000
337.86	139.1000
338.22	142.5000
338.59	142.2000
338.95	141.5000
339.32	142.2000
339.68	140.9000
340.05	141.0000
340.41	141.2000
340.78	142.6000
341.14	141.4000
341.51	142.5000
341.87	143.4000
342.24	145.1000
342.60	146.1000
342.96	146.7000
343.33	145.7000
343.69	144.3000
344.06	148.6000
344.42	149.5000
344.79	150.6000
345.15	152.1000
345.51	150.9000
345.88	153.9000
346.24	151.6000
346.61	153.2000
346.97	154.6000
347.34	153.5000
347.70	157.2000
348.06	154.9000
348.43	158.1000
348.79	157.6000
349.16	159.4000
349.52	161.0000
349.88	161.0000
350.25	159.6000
350.61	160.2000
350.97	162.8000
351.34	162.8000
351.70	164.9000
352.07	163.6000
352.43	165.2000
352.79	163.8000
353.16	166.0000
353.52	166.7000
353.88	168.7000
354.25	167.4000
354.61	167.7000
354.97	170.0000
355.34	171.5000
355.70	171.6000
356.06	169.9000
356.43	175.1000
356.79	173.6000
357.15	174.9000
357.52	176.2000
357.88	174.5000
358.24	178.6000
358.60	180.3000
358.97	178.7000
359.33	181.2000
359.69	182.2000
360.06	184.3000
360.42	184.8000
360.78	186.2000
361.14	189.7000
361.51	189.5000
361.87	192.0000
362.23	196.0000
362.60	193.3000
362.96	194.7000
363.32	195.3000
363.68	200.3000
364.05	199.6000
364.41	200.7000
364.77	206.9000
365.13	207.3000
365.50	205.9000
365.86	212.1000
366.22	214.1000
366.58	211.4000
366.95	215.0000
367.31	210.2000
367.67	216.9000
368.03	213.3000
368.39	219.9000
368.76	219.6000
369.12	215.3000
369.48	219.6000
369.84	216.2000
370.20	224.1000
370.57	222.3000
370.93	223.2000
371.29	220.7000
371.65	227.1000
372.01	223.5000
372.38	223.6000
372.74	228.6000
373.10	222.7000
373.46	229.8000
373.82	229.0000
374.18	229.6000
374.55	229.7000
374.91	232.1000
375.27	240.0000
375.63	234.4000
375.99	230.7000
376.35	236.1000
376.71	232.7000
377.08	237.1000
377.44	241.1000
377.80	254.0000
378.16	247.6000
378.52	250.5000
378.88	254.9000
379.24	252.1000
379.60	256.7000
379.97	263.9000
380.33	263.4000
380.69	255.4000
381.05	259.3000
381.41	270.9000
381.77	262.4000
382.13	264.9000
382.49	261.8000
382.85	258.4000
383.21	271.5000
383.57	253.0000
383.94	272.6000
384.30	272.8000
384.66	268.5000
385.02	257.8000
385.38	270.5000
385.74	263.2000
386.10	270.5000
386.46	285.7000
386.82	276.1000
387.18	284.8000
387.54	283.6000
387.90	277.3000
388.26	286.2000
388.62	284.1000
388.98	273.8000
389.34	275.0000
389.70	278.9000
390.06	257.0000
390.42	264.0000
390.78	288.7000
391.14	301.2000
391.50	295.0000
391.86	305.1000
392.22	311.2000
392.58	306.5000
392.94	270.3000
393.30	283.1000
393.66	289.7000
394.02	296.2000
394.38	264.4000
394.74	281.9000
395.10	284.5000
395.46	292.7000
395.82	291.2000
396.18	283.5000
396.54	313.8000
396.90	321.7000
397.26	309.0000
397.62	305.6000
397.98	330.1000
398.34	294.8000
398.70	299.9000
399.05	273.1000
399.41	274.6000
399.77	281.6000
400.13	293.9000
400.49	299.7000
400.85	300.2000
401.21	280.7000
401.57	305.2000
401.93	288.9000
402.29	284.3000
402.65	287.7000
403.00	301.1000
403.36	301.5000
403.72	299.2000
404.08	330.4000
404.44	302.7000
404.80	312.0000
405.16	314.3000
405.52	308.2000
405.87	311.7000
406.23	309.6000
406.59	280.3000
406.95	299.6000
407.31	300.5000
407.67	303.4000
408.03	307.5000
408.38	310.1000
408.74	330.0000
409.10	332.6000
409.46	306.3000
409.82	312.9000
410.17	309.1000
410.53	300.2000
410.89	307.3000
411.25	279.9000
411.61	302.6000
411.97	317.3000
412.32	315.2000
412.68	322.9000
413.04	297.8000
413.40	277.7000
413.75	291.1000
414.11	290.8000
414.47	289.8000
414.83	322.7000
415.19	298.6000
415.54	281.9000
415.90	312.0000
416.26	304.9000
416.62	308.4000
416.97	280.5000
417.33	313.5000
417.69	312.0000
418.05	303.3000
418.40	290.2000
418.76	289.5000
419.12	318.3000
419.48	321.5000
419.83	344.0000
420.19	313.0000
420.55	316.0000
420.90	354.7000
421.26	334.2000
421.62	304.1000
421.98	333.1000
422.33	347.3000
422.69	355.7000
423.05	337.6000
423.40	299.9000
423.76	295.9000
424.12	320.2000
424.47	320.0000
424.83	300.5000
425.19	302.0000
425.54	308.5000
425.90	328.1000
426.26	334.7000
426.61	344.9000
426.97	279.2000
427.33	325.7000
427.68	314.7000
428.04	358.9000
428.40	359.3000
428.75	378.9000
429.11	334.9000
429.47	385.3000
429.82	380.6000
430.18	351.7000
430.53	336.4000
430.89	335.1000
431.25	322.1000
431.60	330.3000
431.96	320.5000
432.31	321.4000
432.67	351.1000
433.03	371.3000
433.38	337.2000
433.74	343.3000
434.09	341.8000
434.45	337.2000
434.81	324.0000
435.16	347.0000
435.52	320.0000
435.87	314.7000
436.23	313.4000
436.58	314.2000
436.94	328.8000
437.30	344.1000
437.65	350.9000
438.01	354.6000
438.36	327.3000
438.72	317.2000
439.07	308.1000
439.43	326.9000
439.78	350.7000
440.14	382.4000
440.49	337.2000
440.85	348.8000
441.20	364.2000
441.56	348.1000
441.91	371.5000
442.27	343.7000
442.62	350.5000
442.98	359.2000
443.33	350.6000
443.69	352.2000
444.04	346.2000
444.40	320.2000
444.75	355.4000
445.11	370.0000
445.46	379.4000
445.82	369.8000
446.17	344.6000
446.53	358.7000
446.88	393.2000
447.23	331.1000
447.59	331.5000
447.94	340.4000
448.30	344.9000
448.65	339.4000
449.01	358.3000
449.36	357.6000
449.72	370.3000
450.07	383.1000
450.42	364.8000
450.78	349.3000
451.13	366.0000
451.49	344.4000
451.84	343.9000
452.19	327.9000
452.55	332.3000
452.90	340.7000
453.26	373.8000
453.61	380.3000
453.96	319.5000
454.32	360.2000
454.67	345.6000
455.02	318.7000
455.38	336.4000
455.73	336.6000
456.09	369.7000
456.44	371.4000
456.79	372.0000
457.15	360.0000
457.50	350.2000
457.85	352.7000
458.21	366.5000
458.56	358.3000
458.91	344.9000
459.27	323.2000
459.62	342.2000
459.97	350.2000
460.32	361.9000
460.68	342.0000
461.03	322.2000
461.38	334.5000
461.74	359.5000
462.09	353.6000
462.44	341.4000
462.80	355.8000
463.15	353.1000
463.50	350.8000
463.85	366.9000
464.21	380.7000
464.56	392.5000
464.91	351.4000
465.26	349.3000
465.62	359.9000
465.97	375.3000
466.32	367.2000
466.67	364.4000
467.03	358.0000
467.38	354.7000
467.73	359.7000
468.08	367.7000
468.44	369.7000
468.79	356.5000
469.14	341.7000
469.49	355.7000
469.85	357.6000
470.20	384.3000
470.55	388.1000
470.90	387.9000
471.25	361.7000
471.61	384.2000
471.96	385.4000
472.31	407.7000
472.66	407.5000
473.01	412.9000
473.36	419.6000
473.72	419.0000
474.07	426.8000
474.42	428.1000
474.77	431.8000
475.12	435.2000
475.47	438.7000
475.83	438.7000
476.18	433.6000
476.53	426.1000
476.88	455.7000
477.23	455.9000
477.58	450.1000
477.93	450.9000
478.28	450.5000
478.64	464.5000
478.99	472.3000
479.34	480.9000
479.69	489.1000
480.04	492.9000
480.39	490.6000
480.74	480.4000
481.09	509.2000
481.44	501.1000
481.79	497.6000
482.15	503.5000
482.50	507.8000
482.85	506.6000
483.20	533.2000
483.55	542.2000
483.90	561.8000
484.25	662.4000
484.60	731.1000
484.95	784.1000
485.30	738.3000
485.65	664.4000
486.00	625.9000
486.35	579.6000
486.70	553.1000
487.05	558.9000
487.40	547.6000
487.75	549.5000
488.10	549.5000
488.45	543.1000
488.80	547.8000
489.15	553.8000
489.50	555.8000
489.85	560.9000
490.20	551.3000
490.55	560.0000
490.90	554.3000
491.25	558.8000
491.60	547.8000
491.95	548.9000
492.30	553.6000
492.65	565.7000
493.00	560.1000
493.35	559.1000
493.70	560.0000
494.05	558.5000
494.40	565.5000
494.75	578.8000
495.10	579.5000
495.45	580.8000
495.80	583.7000
496.15	569.2000
496.50	558.9000
496.84	557.9000
497.19	559.6000
497.54	566.6000
497.89	571.0000
498.24	572.8000
498.59	579.3000
498.94	574.8000
499.29	567.7000
499.64	568.2000
499.99	577.1000
500.33	583.7000
500.68	581.3000
501.03	583.9000
501.38	581.5000
501.73	585.3000
502.08	582.2000
502.43	584.7000
502.77	583.0000
503.12	579.8000
503.47	574.3000
503.82	582.7000
504.17	579.1000
504.52	586.6000
504.86	584.1000
505.21	586.3000
505.56	581.9000
505.91	579.8000
506.26	576.4000
506.61	580.4000
506.95	583.1000
507.30	580.8000
507.65	590.7000
508.00	584.7000
508.35	583.8000
508.69	584.8000
509.04	587.9000
509.39	579.2000
509.74	583.4000
510.08	584.3000
510.43	593.2000
510.78	587.4000
511.13	587.4000
511.47	590.1000
511.82	589.4000
512.17	590.0000
512.52	590.0000
512.86	594.6000
513.21	592.5000
513.56	588.3000
513.91	590.7000
514.25	584.6000
514.60	588.7000
514.95	592.4000
515.30	592.2000
515.64	595.9000
515.99	605.2000
516.34	597.9000
516.68	594.8000
517.03	597.8000
517.38	599.2000
517.72	607.7000
518.07	606.0000
518.42	603.6000
518.76	605.6000
519.11	596.8000
519.46	600.5000
519.80	596.6000
520.15	600.9000
520.50	603.3000
520.84	600.9000
521.19	605.7000
521.54	604.8000
521.88	596.9000
522.23	604.0000
522.58	605.9000
522.92	607.5000
523.27	608.4000
523.61	608.1000
523.96	608.0000
524.31	614.6000
524.65	612.4000
525.00	610.7000
525.34	604.1000
525.69	605.7000
526.04	608.8000
526.38	615.4000
526.73	610.4000
527.07	613.2000
527.42	616.8000
527.76	620.3000
528.11	629.5000
528.46	618.9000
528.80	617.9000
529.15	612.0000
529.49	608.8000
529.84	611.0000
530.18	610.6000
530.53	617.4000
530.87	616.4000
531.22	611.2000
531.56	616.9000
531.91	622.0000
532.25	623.6000
532.60	628.2000
532.94	629.8000
533.29	625.7000
533.63	626.6000
533.98	621.0000
534.32	627.8000
534.67	628.5000
535.01	627.0000
535.36	613.7000
535.70	620.7000
536.05	619.4000
536.39	624.9000
536.74	619.7000
537.08	623.0000
537.43	623.6000
537.77	631.1000
538.12	636.5000
538.46	631.8000
538.80	629.9000
539.15	620.6000
539.49	634.2000
539.84	638.8000
540.18	634.2000
540.53	630.1000
540.87	629.5000
541.21	640.8000
541.56	637.5000
541.90	634.9000
542.25	633.9000
542.59	633.0000
542.93	643.0000
543.28	637.5000
543.62	639.7000
543.97	636.3000
544.31	639.2000
544.65	634.7000
545.00	634.3000
545.34	635.9000
545.68	636.0000
546.03	637.6000
546.37	651.1000
546.71	658.9000
547.06	661.0000
547.40	661.1000
547.74	654.6000
548.09	648.9000
548.43	639.2000
548.77	640.7000
549.12	635.7000
549.46	634.4000
549.80	637.7000
550.15	642.3000
550.49	636.3000
550.83	648.2000
551.17	654.3000
551.52	647.5000
551.86	649.4000
552.20	646.7000
552.55	655.3000
552.89	649.7000
553.23	645.5000
553.57	651.8000
553.92	649.6000
554.26	656.7000
554.60	654.6000
554.94	661.6000
555.29	660.6000
555.63	652.7000
555.97	652.4000
556.31	652.3000
556.66	646.7000
557.00	644.0000
557.34	649.2000
557.68	649.3000
558.02	647.2000
558.37	651.1000
558.71	652.2000
559.05	663.0000
559.39	673.2000
559.73	678.0000
560.08	678.2000
560.42	674.2000
560.76	668.7000
561.10	662.5000
561.44	658.5000
561.78	660.7000
562.13	671.7000
562.47	669.4000
562.81	676.1000
563.15	668.0000
563.49	676.0000
563.83	677.6000
564.17	676.2000
564.52	670.7000
564.86	673.9000
565.20	669.1000
565.54	666.2000
565.88	680.2000
566.22	685.5000
566.56	684.2000
566.90	695.2000
567.24	707.7000
567.59	714.5000
567.93	726.4000
568.27	742.6000
568.61	752.8000
568.95	755.9000
569.29	764.3000
569.63	778.9000
569.97	792.9000
570.31	791.0000
570.65	804.2000
570.99	798.1000
571.33	793.9000
571.67	784.3000
572.01	802.6000
572.35	822.9000
572.69	842.3000
573.03	843.7000
573.37	858.3000
573.71	861.0000
574.05	843.8000
574.39	833.8000
574.73	825.7000
575.07	818.9000
575.41	834.3000
575.75	836.3000
576.09	875.7000
576.43	908.0000
576.77	930.2000
577.11	914.1000
577.45	887.6000
577.79	864.5000
578.13	859.0000
578.47	839.2000
578.81	848.8000
579.15	844.1000
579.49	855.9000
579.83	914.1000
580.17	964.3000
580.51	1001.7000
580.85	1002.3000
581.19	956.1000
581.53	911.0000
581.87	856.8000
582.20	814.6000
582.54	797.3000
582.88	793.3000
583.22	804.6000
583.56	831.1000
583.90	871.0000
584.24	886.4000
584.58	870.8000
584.92	850.7000
585.25	827.4000
585.59	818.3000
585.93	821.4000
586.27	839.5000
586.61	824.4000
586.95	826.0000
587.29	813.4000
587.62	791.5000
587.96	777.0000
588.30	760.8000
588.64	749.8000
588.98	746.5000
589.31	742.4000
589.65	731.0000
589.99	719.0000
590.33	725.0000
590.67	721.7000
591.01	734.0000
591.34	767.6000
591.68	800.5000
592.02	820.3000
592.36	810.2000
592.69	791.0000
593.03	772.3000
593.37	767.8000
593.71	770.2000
594.04	775.8000
594.38	770.5000
594.72	761.1000
595.06	739.5000
595.39	726.3000
595.73	730.5000
596.07	740.8000
596.41	738.9000
596.74	734.2000
597.08	738.1000
597.42	758.7000
597.76	767.4000
598.09	777.5000
598.43	765.3000
598.77	773.9000
599.10	778.9000
599.44	776.2000
599.78	779.9000
600.11	770.7000
600.45	770.2000
600.79	753.0000
601.12	747.4000
601.46	746.3000
601.80	765.1000
602.13	769.0000
602.47	774.6000
602.81	762.3000
603.14	748.4000
603.48	738.4000
603.82	733.5000
604.15	734.3000
604.49	745.0000
604.82	744.1000
605.16	738.5000
605.50	726.6000
605.83	741.4000
606.17	745.5000
606.50	746.9000
606.84	741.6000
607.18	732.7000
607.51	727.4000
607.85	718.9000
608.18	713.3000
608.52	723.8000
608.86	725.2000
609.19	732.2000
609.53	722.5000
609.86	724.7000
610.20	726.6000
610.53	712.3000
610.87	693.2000
611.20	707.4000
611.54	688.8000
611.87	698.0000
612.21	701.4000
612.54	689.5000
612.88	691.9000
613.21	694.5000
613.55	707.6000
613.88	701.2000
614.22	708.3000
614.55	701.3000
614.89	696.4000
615.22	682.1000
615.56	677.2000
615.89	676.3000
616.23	671.0000
616.56	666.9000
616.90	670.6000
617.23	658.6000
617.57	666.0000
617.90	656.8000
618.24	655.6000
618.57	654.1000
618.90	656.7000
619.24	650.5000
619.57	641.6000
619.91	641.3000
620.24	620.3000
620.58	634.5000
620.91	644.9000
621.24	640.8000
621.58	645.1000
621.91	647.5000
622.25	649.8000
622.58	638.3000
622.91	642.9000
623.25	632.6000
623.58	640.4000
623.91	628.9000
624.25	629.0000
624.58	626.7000
624.92	623.2000
625.25	614.6000
625.58	606.2000
625.92	621.0000
626.25	613.4000
626.58	616.0000
626.92	606.2000
627.25	612.7000
627.58	601.4000
627.91	607.9000
628.25	606.8000
628.58	607.7000
628.91	598.2000
629.25	596.3000
629.58	591.9000
629.91	587.8000
630.25	590.0000
630.58	582.6000
630.91	576.3000
631.24	573.6000
631.58	576.3000
631.91	577.4000
632.24	566.8000
632.57	565.6000
632.91	566.3000
633.24	559.9000
633.57	561.0000
633.90	565.9000
634.24	566.6000
634.57	567.5000
634.90	573.3000
635.23	563.7000
635.56	566.2000
635.90	568.2000
636.23	566.3000
636.56	561.5000
636.89	565.3000
637.22	563.5000
637.56	558.3000
637.89	549.1000
638.22	554.7000
638.55	551.4000
638.88	539.7000
639.21	550.2000
639.55	550.1000
639.88	546.5000
640.21	544.2000
640.54	537.3000
640.87	534.9000
641.20	535.6000
641.53	536.5000
641.87	539.0000
642.20	538.4000
642.53	530.4000
642.86	532.4000
643.19	535.2000
643.52	535.9000
643.85	534.1000
644.18	531.0000
644.51	530.0000
644.84	530.0000
645.18	521.1000
645.51	525.0000
645.84	525.9000
646.17	525.6000
646.50	527.2000
646.83	535.4000
647.16	531.5000
647.49	540.6000
647.82	544.0000
648.15	542.5000
648.48	538.3000
648.81	534.3000
649.14	530.9000
649.47	531.3000
649.80	525.1000
650.13	520.5000
650.46	526.6000
650.79	524.7000
651.12	528.4000
651.45	526.4000
651.78	524.7000
652.11	524.1000
652.44	522.6000
652.77	522.3000
653.10	522.1000
653.43	523.3000
653.76	528.4000
654.09	560.6000
654.42	921.1000
654.75	1413.9000
655.08	1659.6000
655.41	1665.4000
655.74	1283.2000
656.07	1049.6000
656.39	883.7000
656.72	759.1000
657.05	646.9000
657.38	578.2000
657.71	548.1000
658.04	529.1000
658.37	523.6000
658.70	518.6000
659.03	510.5000
659.36	505.1000
659.68	507.3000
660.01	511.6000
660.34	507.4000
660.67	508.4000
661.00	508.2000
661.33	504.0000
661.66	500.1000
661.98	498.1000
662.31	498.8000
662.64	497.0000
662.97	497.9000
663.30	498.0000
663.63	498.3000
663.95	496.4000
664.28	496.1000
664.61	495.9000
664.94	497.9000
665.27	494.6000
665.59	490.1000
665.92	491.9000
666.25	490.2000
666.58	485.0000
666.91	493.9000
667.23	483.5000
667.56	481.7000
667.89	484.1000
668.22	486.7000
668.54	487.7000
668.87	487.6000
669.20	481.0000
669.53	484.1000
669.85	482.9000
670.18	485.7000
670.51	490.4000
670.83	495.7000
671.16	497.5000
671.49	504.2000
671.82	498.2000
672.14	490.8000
672.47	487.1000
672.80	481.2000
673.12	482.5000
673.45	483.4000
673.78	474.3000
674.10	477.1000
674.43	475.4000
674.76	474.3000
675.08	479.1000
675.41	478.1000
675.74	474.2000
676.06	474.8000
676.39	469.3000
676.72	474.2000
677.04	478.4000
677.37	479.6000
677.69	470.2000
678.02	470.5000
678.35	474.3000
678.67	470.0000
679.00	475.0000
679.32	471.3000
679.65	464.5000
679.98	464.3000
680.30	462.0000
680.63	463.4000
680.95	467.5000
681.28	465.2000
681.60	455.3000
681.93	457.0000
682.26	453.3000
682.58	456.5000
682.91	455.1000
683.23	458.7000
683.56	459.7000
683.88	462.3000
684.21	466.1000
684.53	470.2000
684.86	466.2000
685.18	461.1000
685.51	456.8000
685.83	456.3000
686.16	454.1000
686.48	453.3000
686.81	450.9000
687.13	450.1000
687.46	445.9000
687.78	445.3000
688.11	440.5000
688.43	439.8000
688.76	441.5000
689.08	440.7000
689.41	436.2000
689.73	436.4000
690.05	438.0000
690.38	440.9000
690.70	438.9000
691.03	437.6000
691.35	437.2000
691.68	430.4000
692.00	430.8000
692.32	436.5000
692.65	433.0000
692.97	431.5000
693.29	425.2000
693.62	419.3000
693.94	424.0000
694.27	418.8000
694.59	416.1000
694.91	417.5000
695.24	415.1000
695.56	412.3000
695.88	421.0000
696.21	420.6000
696.53	419.4000
696.85	424.5000
697.18	420.7000
697.50	414.2000
697.82	415.0000
698.15	411.3000
698.47	408.2000
698.79	405.4000
699.12	404.9000
699.44	396.7000
699.76	396.7000
700.09	397.4000
700.41	396.0000
700.73	397.9000
701.05	397.3000
701.38	393.2000
701.70	399.2000
702.02	399.1000
702.34	396.8000
702.67	398.8000
702.99	394.2000
703.31	397.0000
703.63	395.5000
703.96	393.7000
704.28	388.7000
704.60	383.3000
704.92	387.2000
705.25	388.1000
705.57	395.6000
705.89	399.3000
706.21	401.3000
706.53	401.9000
706.86	401.8000
707.18	399.3000
707.50	399.3000
707.82	394.0000
708.14	393.2000
708.46	397.0000
708.79	388.3000
709.11	391.3000
709.43	386.5000
709.75	386.0000
710.07	381.2000
710.39	386.5000
710.71	380.3000
711.04	377.5000
711.36	375.3000
711.68	376.6000
712.00	380.4000
712.32	382.8000
712.64	380.0000
712.96	381.4000
713.28	384.5000
713.60	383.2000
713.92	380.1000
714.24	380.7000
714.57	381.2000
714.89	376.5000
715.21	371.5000
715.53	369.9000
715.85	366.4000
716.17	367.2000
716.49	363.7000
716.81	365.0000
717.13	366.4000
717.45	366.5000
717.77	367.9000
718.09	365.9000
718.41	368.5000
718.73	368.1000
719.05	361.1000
719.37	356.3000
719.69	358.7000
720.01	358.0000
720.33	356.1000
720.65	358.0000
720.97	359.6000
721.29	352.6000
721.61	353.0000
721.93	350.4000
722.25	348.2000
722.57	348.0000
722.89	348.7000
723.21	350.3000
723.52	347.2000
723.84	349.2000
724.16	353.6000
724.48	349.8000
724.80	356.2000
725.12	353.4000
725.44	353.2000
725.76	350.7000
726.08	354.6000
726.40	345.1000
726.72	345.7000
727.03	349.0000
727.35	344.1000
727.67	341.6000
727.99	344.9000
728.31	343.8000
728.63	341.8000
728.95	344.4000
729.26	343.6000
729.58	344.6000
729.90	346.6000
730.22	346.1000
730.54	346.3000
730.86	350.6000
731.17	349.0000
731.49	339.4000
731.81	340.9000
732.13	339.9000
732.45	339.1000
732.76	338.7000
733.08	337.7000
733.40	341.9000
733.72	338.9000
734.03	335.9000
734.35	338.2000
734.67	337.1000
734.99	332.2000
735.30	335.5000
735.62	333.9000
735.94	334.9000
736.26	332.4000
736.57	330.2000
736.89	330.4000
737.21	320.5000
737.53	320.2000
737.84	319.8000
738.16	321.9000
738.48	323.4000
738.79	327.0000
739.11	325.8000
739.43	322.3000
739.74	316.4000
740.06	313.6000
740.38	309.0000
740.69	307.1000
741.01	305.0000
741.33	303.8000
741.64	304.0000
741.96	302.7000
742.28	300.5000
742.59	299.0000
742.91	298.9000
743.23	294.9000
743.54	296.7000
743.86	297.4000
744.17	295.7000
744.49	292.0000
744.81	291.7000
745.12	290.5000
745.44	287.5000
745.75	288.7000
746.07	288.8000
746.38	287.9000
746.70	289.4000
747.02	289.7000
747.33	285.0000
747.65	282.1000
747.96	285.2000
748.28	282.8000
748.59	285.6000
748.91	286.4000
749.22	288.9000
749.54	288.5000
749.85	289.0000
750.17	285.6000
750.48	282.4000
750.80	280.1000
751.11	282.9000
751.43	282.7000
751.74	282.9000
752.06	279.4000
752.37	282.6000
752.69	281.6000
753.00	283.6000
753.32	282.7000
753.63	284.1000
753.95	279.6000
754.26	275.6000
754.58	279.1000
754.89	281.6000
755.20	282.1000
755.52	283.4000
755.83	285.5000
756.15	286.4000
756.46	290.4000
756.78	288.8000
757.09	292.8000
757.40	291.2000
757.72	288.1000
758.03	282.1000
758.34	283.0000
758.66	286.4000
758.97	284.5000
759.29	284.7000
759.60	284.5000
759.91	282.9000
760.23	283.1000
760.54	282.8000
760.85	276.8000
761.17	273.4000
761.48	270.5000
761.79	268.7000
762.11	268.3000
762.42	269.7000
762.73	271.9000
763.05	272.0000
763.36	278.0000
763.67	276.3000
763.98	275.8000
764.30	278.6000
764.61	279.3000
764.92	271.8000
765.23	265.1000
765.55	263.0000
765.86	262.0000
766.17	259.6000
766.48	255.6000
766.80	252.1000
767.11	256.7000
767.42	254.8000
767.73	258.4000
768.05	263.3000
768.36	263.8000
768.67	266.1000
768.98	259.7000
769.29	263.5000
769.61	259.3000
769.92	254.1000
770.23	258.4000
770.54	253.9000
770.85	253.7000
771.17	253.3000
771.48	249.4000
771.79	248.8000
772.10	246.5000
772.41	246.2000
772.72	245.4000
773.03	242.5000
773.35	243.8000
773.66	239.1000
773.97	239.9000
774.28	238.1000
774.59	235.3000
774.90	234.8000
775.21	235.1000
775.52	230.0000
775.83	231.3000
776.15	230.3000
776.46	230.4000
776.77	229.8000
777.08	232.7000
777.39	234.5000
777.70	228.2000
778.01	232.4000
778.32	233.2000
778.63	235.8000
778.94	233.7000
779.25	232.4000
779.56	228.9000
779.87	229.1000
780.18	228.1000
780.49	230.8000
780.80	231.1000
781.11	232.0000
781.42	227.4000
781.73	226.0000
782.04	223.3000
782.35	224.6000
782.66	223.1000
782.97	219.6000
783.28	221.5000
783.59	217.4000
783.90	216.8000
784.21	216.2000
784.52	216.6000
784.83	216.0000
785.14	218.5000
785.45	216.1000
785.76	214.9000
786.06	214.0000
786.37	216.7000
786.68	213.1000
786.99	212.1000
787.30	214.1000
787.61	211.6000
787.92	213.3000
788.23	210.4000
788.54	210.9000
788.84	209.2000
789.15	207.8000
789.46	205.8000
789.77	203.5000
790.08	200.8000
790.39	198.7000
790.70	201.1000
791.00	201.8000
791.31	200.0000
791.62	200.7000
791.93	197.8000
792.24	199.7000
792.54	197.7000
792.85	198.1000
793.16	201.4000
793.47	204.9000
793.78	208.1000
794.08	207.2000
794.39	201.1000
794.70	198.3000
795.01	196.0000
795.31	193.7000
795.62	191.3000
795.93	189.4000
796.24	189.1000
796.54	190.2000
796.85	192.3000
797.16	187.7000
797.47	185.3000
797.77	188.9000
798.08	185.7000
798.39	186.0000
798.69	187.8000
799.00	186.1000
799.31	184.9000
799.62	184.3000
799.92	183.4000
800.23	183.5000
800.54	182.5000
800.84	182.0000
801.15	182.4000
801.46	180.4000
801.76	181.7000
802.07	177.5000
802.37	179.8000
802.68	177.5000
802.99	179.3000
803.29	178.1000
803.60	174.9000
803.91	176.0000
804.21	177.1000
804.52	175.1000
804.82	173.9000
805.13	175.8000
805.44	177.1000
805.74	176.3000
806.05	177.2000
806.35	175.7000
806.66	172.0000
806.96	169.9000
807.27	170.9000
807.57	170.7000
807.88	170.2000
808.19	170.7000
808.49	170.6000
808.80	170.2000
809.10	169.7000
809.41	168.7000
809.71	166.3000
810.02	165.4000
810.32	164.7000
810.63	165.9000
810.93	165.2000
811.24	164.0000
811.54	164.3000
811.85	164.0000
812.15	160.4000
812.45	162.0000
812.76	161.5000
813.06	162.1000
813.37	162.7000
813.67	163.6000
813.98	161.1000
814.28	159.9000
814.58	159.4000
814.89	157.2000
815.19	156.6000
815.50	158.5000
815.80	158.2000
816.11	157.5000
816.41	156.7000
816.71	156.8000
817.02	156.8000
817.32	155.4000
817.62	154.7000
817.93	153.2000
818.23	152.6000
818.53	153.3000
818.84	152.4000
819.14	151.7000
819.44	151.7000
819.75	151.4000
820.05	153.6000
820.35	152.7000
820.66	149.7000
820.96	150.7000
821.26	149.9000
821.57	151.1000
821.87	149.1000
822.17	150.1000
822.48	150.2000
822.78	148.2000
823.08	149.8000
823.38	148.3000
823.69	146.4000
823.99	145.4000
824.29	147.0000
824.59	145.1000
824.90	145.7000
825.20	145.7000
825.50	145.6000
825.80	145.4000
826.10	145.9000
826.41	144.7000
826.71	147.6000
827.01	145.8000
827.31	147.5000
827.61	145.4000
827.92	144.4000
828.22	143.4000
828.52	143.7000
828.82	142.7000
829.12	140.6000
829.42	143.2000
829.73	142.0000
830.03	140.3000
830.33	141.9000
830.63	139.6000
830.93	136.2000
831.23	137.6000
831.53	138.7000
831.83	138.9000
832.14	138.4000
832.44	138.2000
832.74	138.2000
833.04	136.8000
833.34	138.9000
833.64	136.0000
833.94	136.7000
834.24	136.1000
834.54	138.3000
834.84	134.3000
835.14	135.2000
835.44	136.4000
835.74	135.0000
836.04	133.3000
836.34	136.2000
836.64	134.3000
836.95	134.2000
837.25	132.2000
837.55	133.2000
837.85	132.3000
838.15	133.9000
838.45	134.0000
838.74	131.5000
839.04	130.7000
839.34	132.0000
839.64	130.3000
839.94	130.0000
840.24	131.3000
840.54	130.8000
840.84	130.7000
841.14	130.3000
841.44	128.9000
841.74	131.1000
842.04	129.3000
842.34	128.3000
842.64	126.8000
842.94	126.5000
843.24	127.0000
843.53	126.5000
843.83	128.5000
844.13	127.0000
844.43	127.1000
844.73	126.2000
845.03	126.1000
845.33	126.0000
845.63	123.9000
845.92	125.7000
846.22	125.7000
846.52	124.9000
846.82	125.3000
847.12	124.0000
847.42	124.4000
847.71	123.9000
848.01	123.0000
848.31	122.0000
848.61	122.2000
848.91	121.6000
849.20	123.3000
849.50	122.9000
849.80	121.6000
850.10	122.3000
850.39	123.8000
850.69	123.3000
850.99	120.5000
851.29	121.3000
851.59	121.7000
851.88	122.6000
852.18	121.5000
852.48	121.5000
852.77	121.0000
853.07	122.6000
853.37	121.4000
853.67	121.7000
853.96	121.7000
854.26	121.7000
854.56	119.4000
854.85	121.8000
855.15	120.0000
855.45	119.8000
855.74	119.8000
856.04	118.8000
856.34	117.3000
856.63	119.7000
856.93	118.1000
857.23	117.6000
857.52	118.6000
857.82	118.3000
858.11	117.8000
858.41	117.3000
858.71	118.4000
859.00	115.8000
859.30	116.3000
859.59	115.9000
859.89	117.7000
860.19	114.4000
860.48	115.2000
860.78	116.5000
861.07	116.9000
861.37	114.5000
861.66	115.3000
861.96	113.8000
862.26	114.9000
862.55	114.0000
862.85	113.2000
863.14	114.8000
863.44	112.5000
863.73	112.4000
864.03	112.1000
864.32	111.8000
864.62	111.9000
864.91	111.4000
865.21	112.2000
865.50	112.8000
865.80	112.1000
866.09	111.8000
866.39	112.1000
866.68	111.9000
866.97	111.7000
867.27	111.9000
867.56	111.0000
867.86	109.4000
868.15	110.1000
868.45	108.7000
868.74	108.6000
869.03	111.2000
869.33	110.7000
869.62	111.8000
869.92	109.1000
870.21	107.8000
870.50	109.2000
870.80	108.5000
871.09	109.6000
871.39	108.3000
871.68	108.5000
871.97	108.9000
872.27	107.4000
872.56	107.7000
872.85	106.7000
873.15	107.0000
873.44	105.8000
873.73	107.2000
874.03	106.1000
874.32	107.4000
874.61	106.3000
874.90	107.3000
875.20	106.5000
875.49	104.0000
875.78	107.0000
>>>>>End Spectral Data<<<<<
