OOIBase32 Version 1.0.0.8 Data File
++++++++++++++++++++++++++++++++++++
Date: Wednesday, January 23, 1980, 02:12:12
User: Valued Ocean Optics Customer
Spectrometer Serial Number: Unknown
Spectrometer Channel: Master
Integration Time (msec): 3
Spectra Averaged: 20
Boxcar Smoothing: 0
Correct for Electrical Dark: Disabled
Time Normalized: Disabled
Dual-beam Reference: Disabled
Reference Channel: Master
>>>>>Begin Spectral Data<<<<<
179.00	0.0000
179.38	0.0000
179.75	71.3500
180.13	72.3000
180.51	71.8500
180.88	71.9500
181.26	72.5000
181.64	72.2500
182.02	72.0500
182.39	72.4500
182.77	72.6500
183.15	72.0500
183.52	72.0000
183.90	71.9500
184.28	71.7000
184.65	72.4000
185.03	72.3000
185.41	71.7000
185.78	72.6000
186.16	72.7000
186.53	72.6000
186.91	72.2000
187.29	72.1000
187.66	72.9000
188.04	72.2500
188.42	72.0500
188.79	71.7500
189.17	72.8000
189.55	72.2000
189.92	73.4500
190.30	73.5000
190.67	72.5000
191.05	72.2000
191.43	73.6500
191.80	73.0000
192.18	73.0500
192.56	73.2000
192.93	73.3500
193.31	73.8500
193.68	73.9000
194.06	73.1500
194.44	73.2000
194.81	72.8000
195.19	72.7500
195.56	73.7000
195.94	73.0500
196.32	72.5000
196.69	72.8000
197.07	72.9000
197.44	73.0500
197.82	72.8000
198.19	73.2500
198.57	72.6000
198.95	72.4500
199.32	72.7500
199.70	73.2500
200.07	73.4500
200.45	73.4000
200.82	73.7500
201.20	73.9000
201.57	74.0500
201.95	73.4500
202.33	73.2000
202.70	73.3000
203.08	73.2000
203.45	73.6500
203.83	72.5000
204.20	73.3500
204.58	72.3000
204.95	73.5000
205.33	72.7000
205.70	73.3000
206.08	72.6500
206.45	73.2500
206.83	72.3500
207.20	72.3000
207.58	73.7500
207.95	73.3500
208.33	73.5500
208.70	73.2500
209.08	72.0500
209.45	73.1500
209.83	73.8500
210.20	73.0500
210.58	72.8500
210.95	74.8500
211.33	72.5500
211.70	73.2500
212.08	73.5500
212.45	74.1000
212.83	72.9500
213.20	72.7000
213.58	73.1000
213.95	73.3000
214.33	73.3500
214.70	72.9500
215.07	72.2000
215.45	73.1000
215.82	73.7000
216.20	73.2000
216.57	73.8000
216.95	73.5500
217.32	72.4000
217.70	73.5000
218.07	73.8500
218.44	73.5000
218.82	73.3500
219.19	73.8000
219.57	73.3500
219.94	73.7500
220.32	72.7500
220.69	73.5500
221.06	73.4000
221.44	72.6000
221.81	73.7500
222.19	73.7500
222.56	74.5000
222.93	73.1000
223.31	73.5500
223.68	73.5000
224.06	73.9500
224.43	74.2500
224.80	72.8000
225.18	72.6500
225.55	73.4000
225.92	73.5000
226.30	74.3000
226.67	73.1500
227.05	73.2500
227.42	73.7000
227.79	72.9500
228.17	73.2500
228.54	73.7000
228.91	73.3000
229.29	73.5000
229.66	72.5000
230.03	74.5500
230.41	73.4000
230.78	73.1500
231.15	73.7500
231.53	73.9500
231.90	73.4000
232.27	72.6500
232.65	73.0000
233.02	73.0000
233.39	73.5000
233.77	73.6500
234.14	72.4500
234.51	74.9000
234.89	73.9000
235.26	73.5500
235.63	73.6000
236.01	73.4500
236.38	74.2500
236.75	73.6500
237.12	73.3500
237.50	73.8000
237.87	73.9000
238.24	73.6500
238.62	73.6000
238.99	73.9000
239.36	73.6500
239.73	73.3000
240.11	74.4000
240.48	72.4500
240.85	74.6500
241.23	73.0000
241.60	73.2500
241.97	73.3500
242.34	73.6500
242.72	73.2500
243.09	72.4500
243.46	74.1000
243.83	73.5000
244.21	73.1000
244.58	73.3000
244.95	73.4500
245.32	73.0500
245.70	74.5500
246.07	73.8500
246.44	74.1000
246.81	74.0000
247.18	72.7500
247.56	74.8000
247.93	72.9500
248.30	73.7500
248.67	73.4500
249.04	72.5500
249.42	72.6500
249.79	73.3500
250.16	72.7500
250.53	74.2000
250.90	73.8000
251.28	73.4500
251.65	73.4500
252.02	72.7000
252.39	73.6500
252.76	73.4500
253.14	73.9500
253.51	72.2000
253.88	73.6500
254.25	74.4500
254.62	73.2000
254.99	73.7000
255.37	74.3000
255.74	74.2000
256.11	73.4000
256.48	74.3500
256.85	73.4500
257.22	73.3500
257.59	72.9500
257.97	73.3000
258.34	73.1500
258.71	73.2000
259.08	73.4000
259.45	73.0500
259.82	73.6000
260.19	72.8500
260.56	73.5000
260.94	75.4000
261.31	73.3500
261.68	73.3500
262.05	73.3000
262.42	73.4500
262.79	74.5000
263.16	73.1000
263.53	73.2000
263.90	73.6000
264.28	73.2000
264.65	73.6500
265.02	74.9500
265.39	73.0000
265.76	73.9000
266.13	73.3500
266.50	74.1000
266.87	73.2500
267.24	73.0000
267.61	73.8500
267.98	72.8500
268.35	73.9500
268.72	73.8000
269.09	73.9000
269.46	73.8500
269.84	74.1500
270.21	73.2500
270.58	72.8000
270.95	73.8000
271.32	74.7000
271.69	74.1000
272.06	75.1500
272.43	74.1500
272.80	73.4500
273.17	73.6000
273.54	73.2500
273.91	73.6500
274.28	74.3000
274.65	73.1000
275.02	73.8000
275.39	73.6500
275.76	74.5500
276.13	72.9500
276.50	74.1500
276.87	73.7000
277.24	73.7000
277.61	73.7000
277.98	73.6000
278.35	73.7500
278.72	74.3500
279.09	72.3500
279.46	73.9500
279.83	73.6000
280.20	73.3000
280.57	73.1000
280.94	73.3000
281.31	72.9500
281.67	73.1000
282.04	73.3500
282.41	74.0000
282.78	72.8000
283.15	73.2000
283.52	73.3000
283.89	74.6000
284.26	73.9500
284.63	73.9500
285.00	72.6500
285.37	73.9500
285.74	72.5500
286.11	73.4000
286.48	72.5000
286.85	74.5500
287.21	73.8000
287.58	73.3000
287.95	72.5500
288.32	73.4000
288.69	74.1500
289.06	73.0500
289.43	74.5000
289.80	73.7500
290.17	72.4500
290.54	73.0000
290.90	75.1500
291.27	73.3000
291.64	71.9500
292.01	73.1500
292.38	74.1000
292.75	73.6500
293.12	73.5000
293.48	74.2000
293.85	73.3500
294.22	73.4500
294.59	72.9500
294.96	74.1000
295.33	73.7000
295.70	72.6000
296.06	72.9500
296.43	73.0500
296.80	73.6500
297.17	73.2000
297.54	72.9500
297.91	72.7500
298.27	73.5500
298.64	73.6500
299.01	73.3000
299.38	73.8500
299.75	74.4000
300.11	74.2500
300.48	73.5500
300.85	74.1000
301.22	72.5500
301.59	73.4500
301.95	73.4500
302.32	73.3500
302.69	73.5500
303.06	73.7500
303.43	74.0500
303.79	72.7500
304.16	73.6000
304.53	74.2000
304.90	73.2500
305.26	73.7500
305.63	73.2500
306.00	73.9500
306.37	73.1500
306.73	73.6500
307.10	73.2000
307.47	73.5500
307.84	74.1500
308.20	73.2500
308.57	74.2000
308.94	73.8500
309.31	74.5500
309.67	74.8500
310.04	74.2000
310.41	74.0500
310.77	73.7000
311.14	74.0000
311.51	73.3500
311.88	73.9500
312.24	74.5000
312.61	73.0500
312.98	74.4000
313.34	74.5000
313.71	73.5000
314.08	72.7000
314.44	73.9500
314.81	73.8500
315.18	72.7500
315.55	73.8500
315.91	73.2000
316.28	73.2500
316.65	73.1500
317.01	73.1000
317.38	73.3000
317.75	73.6500
318.11	74.3500
318.48	73.4000
318.84	74.0500
319.21	74.4500
319.58	73.4500
319.94	73.6500
320.31	72.8500
320.68	73.5500
321.04	74.0500
321.41	73.5000
321.78	73.2500
322.14	72.8000
322.51	73.6000
322.87	73.9000
323.24	74.1000
323.61	74.4500
323.97	73.7500
324.34	73.2500
324.70	72.6000
325.07	73.1500
325.44	75.3000
325.80	73.5000
326.17	73.2500
326.53	73.2500
326.90	73.5000
327.27	73.8500
327.63	73.7500
328.00	73.2500
328.36	73.6500
328.73	74.1500
329.09	72.6500
329.46	73.5500
329.83	73.3000
330.19	73.9000
330.56	73.7000
330.92	74.6500
331.29	74.2500
331.65	74.4500
332.02	73.8500
332.38	73.9000
332.75	74.0000
333.11	73.6000
333.48	74.2000
333.84	73.5000
334.21	73.6500
334.58	74.6000
334.94	73.7500
335.31	73.9000
335.67	74.7000
336.04	74.0500
336.40	73.8000
336.77	74.1500
337.13	73.2000
337.50	73.4000
337.86	74.0500
338.22	73.4500
338.59	73.9000
338.95	73.5000
339.32	73.6000
339.68	73.7500
340.05	73.7500
340.41	74.4000
340.78	73.7000
341.14	74.3000
341.51	73.6500
341.87	74.2000
342.24	73.7500
342.60	73.8500
342.96	73.0000
343.33	74.0000
343.69	73.9000
344.06	74.4000
344.42	73.5500
344.79	74.6500
345.15	74.1000
345.51	74.0000
345.88	74.4500
346.24	73.7500
346.61	74.1000
346.97	73.7000
347.34	73.8500
347.70	74.0000
348.06	74.8500
348.43	73.9000
348.79	74.2000
349.16	73.1000
349.52	74.9500
349.88	74.6000
350.25	74.0500
350.61	73.5000
350.97	74.5000
351.34	75.2000
351.70	72.9000
352.07	73.7000
352.43	74.0000
352.79	74.6000
353.16	74.4500
353.52	74.6000
353.88	74.0000
354.25	74.2000
354.61	75.3000
354.97	74.8500
355.34	74.1000
355.70	74.5000
356.06	73.9000
356.43	73.9000
356.79	72.9500
357.15	74.7500
357.52	74.1000
357.88	74.0500
358.24	74.8500
358.60	73.9000
358.97	74.4000
359.33	75.1000
359.69	73.6000
360.06	75.3500
360.42	74.7500
360.78	74.5000
361.14	74.3500
361.51	74.4500
361.87	73.3000
362.23	75.2000
362.60	74.1500
362.96	73.4000
363.32	74.4000
363.68	75.4000
364.05	76.1500
364.41	75.4500
364.77	74.6500
365.13	75.0000
365.50	74.5000
365.86	74.5500
366.22	73.8000
366.58	75.3000
366.95	75.1500
367.31	75.3000
367.67	75.3500
368.03	74.8500
368.39	75.4500
368.76	74.4000
369.12	74.2500
369.48	73.9500
369.84	75.3000
370.20	74.9000
370.57	74.8500
370.93	76.1000
371.29	75.1000
371.65	75.9000
372.01	75.1000
372.38	75.9000
372.74	76.2000
373.10	75.7000
373.46	75.5000
373.82	75.8500
374.18	75.6000
374.55	75.5500
374.91	76.0000
375.27	76.4500
375.63	76.2500
375.99	75.2500
376.35	75.8000
376.71	76.6500
377.08	75.3000
377.44	75.5000
377.80	75.0000
378.16	75.2000
378.52	75.6000
378.88	76.6500
379.24	76.1500
379.60	76.3500
379.97	76.1500
380.33	76.3500
380.69	76.4000
381.05	75.9000
381.41	77.0000
381.77	76.5500
382.13	76.4500
382.49	76.2500
382.85	76.9500
383.21	76.1000
383.57	76.9000
383.94	76.8500
384.30	77.0500
384.66	77.0500
385.02	77.1500
385.38	76.6000
385.74	77.4500
386.10	77.5500
386.46	78.1000
386.82	77.2500
387.18	78.2500
387.54	77.8500
387.90	77.1000
388.26	78.8000
388.62	76.8500
388.98	78.2500
389.34	78.5500
389.70	79.1000
390.06	78.4000
390.42	77.9500
390.78	80.0500
391.14	80.2000
391.50	79.7000
391.86	79.5500
392.22	77.8500
392.58	78.5000
392.94	78.6500
393.30	79.0500
393.66	78.7500
394.02	81.0500
394.38	79.3500
394.74	80.3000
395.10	80.0000
395.46	80.5000
395.82	79.9000
396.18	79.9500
396.54	80.1000
396.90	80.8000
397.26	80.5500
397.62	79.7000
397.98	80.2500
398.34	80.4000
398.70	80.5500
399.05	80.6000
399.41	79.4000
399.77	80.7000
400.13	80.7000
400.49	81.3000
400.85	81.6000
401.21	81.3000
401.57	81.8000
401.93	81.9500
402.29	82.0000
402.65	81.0000
403.00	81.9000
403.36	82.5500
403.72	82.3500
404.08	83.7500
404.44	82.8000
404.80	82.4000
405.16	83.1000
405.52	84.3500
405.87	84.2000
406.23	85.0000
406.59	82.9000
406.95	83.9000
407.31	82.9000
407.67	84.1500
408.03	84.0000
408.38	84.5500
408.74	85.6000
409.10	85.7500
409.46	85.3000
409.82	85.2500
410.17	84.7000
410.53	84.9500
410.89	86.1000
411.25	84.3500
411.61	84.8500
411.97	85.9000
412.32	85.6500
412.68	86.1500
413.04	85.6000
413.40	84.1500
413.75	85.2000
414.11	87.9500
414.47	86.0500
414.83	87.6000
415.19	86.3000
415.54	85.6000
415.90	87.7500
416.26	87.9000
416.62	88.0000
416.97	87.0500
417.33	88.1000
417.69	89.2000
418.05	88.9000
418.40	87.4000
418.76	87.4500
419.12	89.4000
419.48	89.8000
419.83	90.7000
420.19	88.3000
420.55	89.2500
420.90	91.1000
421.26	89.9500
421.62	90.7500
421.98	91.8500
422.33	90.8000
422.69	92.0000
423.05	91.9000
423.40	90.2500
423.76	90.1000
424.12	91.8500
424.47	92.3500
424.83	93.0500
425.19	92.0500
425.54	92.4000
425.90	94.2500
426.26	94.7000
426.61	95.5000
426.97	91.3500
427.33	94.4000
427.68	94.7500
428.04	96.0000
428.40	99.6000
428.75	98.7000
429.11	95.9500
429.47	99.7000
429.82	98.8000
430.18	98.3000
430.53	98.1000
430.89	99.3000
431.25	100.4500
431.60	100.5000
431.96	100.4000
432.31	101.7500
432.67	102.8500
433.03	104.1000
433.38	102.1000
433.74	104.0500
434.09	104.7500
434.45	102.8000
434.81	103.7500
435.16	105.4500
435.52	104.4000
435.87	103.5000
436.23	103.8000
436.58	104.6500
436.94	108.4000
437.30	106.9500
437.65	109.9000
438.01	108.9500
438.36	109.9500
438.72	109.8500
439.07	110.2000
439.43	110.7000
439.78	112.4000
440.14	115.8000
440.49	113.0500
440.85	113.0500
441.20	115.7000
441.56	115.7000
441.91	120.1500
442.27	115.9000
442.62	116.7000
442.98	119.2000
443.33	118.2000
443.69	120.3500
444.04	121.6500
444.40	117.2500
444.75	123.6500
445.11	124.9500
445.46	126.2000
445.82	127.7500
446.17	123.3500
446.53	128.3500
446.88	134.0500
447.23	124.5000
447.59	126.2000
447.94	126.4500
448.30	132.6500
448.65	129.8500
449.01	133.5000
449.36	135.0000
449.72	141.6000
450.07	142.3500
450.42	139.6500
450.78	138.6000
451.13	142.4500
451.49	138.5000
451.84	134.9000
452.19	136.9500
452.55	141.7000
452.90	140.7000
453.26	146.3500
453.61	147.8500
453.96	135.2000
454.32	142.3000
454.67	141.7000
455.02	138.6000
455.38	141.2500
455.73	138.5500
456.09	145.6500
456.44	144.5000
456.79	142.0500
457.15	142.1500
457.50	136.3500
457.85	138.5500
458.21	136.6000
458.56	141.4000
458.91	138.4500
459.27	134.1000
459.62	135.9500
459.97	135.5500
460.32	136.9000
460.68	136.5500
461.03	136.1500
461.38	136.3500
461.74	143.1500
462.09	139.6000
462.44	136.0500
462.80	134.3000
463.15	133.9000
463.50	135.0000
463.85	138.4000
464.21	136.4000
464.56	140.7000
464.91	136.0500
465.26	137.6500
465.62	136.3000
465.97	139.8500
466.32	140.4000
466.67	138.9000
467.03	139.6500
467.38	141.9000
467.73	143.3000
468.08	142.0500
468.44	142.9500
468.79	143.1000
469.14	139.1500
469.49	142.4000
469.85	144.3500
470.20	150.7000
470.55	149.9000
470.90	150.3000
471.25	147.4500
471.61	149.2500
471.96	150.7500
472.31	152.9000
472.66	151.4500
473.01	154.6500
473.36	157.1500
473.72	154.4000
474.07	156.9500
474.42	158.1000
474.77	157.9500
475.12	160.1500
475.47	163.0500
475.83	161.8000
476.18	162.8500
476.53	161.5500
476.88	167.9500
477.23	167.3500
477.58	166.6500
477.93	169.6000
478.28	168.0000
478.64	169.8500
478.99	173.3500
479.34	174.3500
479.69	177.4000
480.04	179.2000
480.39	178.5500
480.74	178.1000
481.09	184.3000
481.44	183.5000
481.79	184.3000
482.15	186.9000
482.50	186.8500
482.85	185.6000
483.20	192.8000
483.55	191.4000
483.90	193.5000
484.25	192.9000
484.60	193.4000
484.95	195.5000
485.30	197.4000
485.65	198.9000
486.00	201.0500
486.35	198.6500
486.70	200.4000
487.05	206.4500
487.40	205.1500
487.75	208.2000
488.10	208.8500
488.45	208.4000
488.80	207.2500
489.15	211.9500
489.50	212.0000
489.85	214.8000
490.20	214.7500
490.55	216.8000
490.90	217.7500
491.25	218.7500
491.60	217.0000
491.95	219.5000
492.30	219.1500
492.65	221.6000
493.00	223.4000
493.35	223.3500
493.70	226.4000
494.05	226.3500
494.40	229.9000
494.75	229.5500
495.10	228.7000
495.45	231.2000
495.80	230.7500
496.15	234.0500
496.50	231.2500
496.84	232.3500
497.19	233.0500
497.54	237.7500
497.89	237.7000
498.24	237.4500
498.59	236.6000
498.94	237.9000
499.29	238.6500
499.64	241.0500
499.99	241.1500
500.33	243.1000
500.68	243.8000
501.03	245.9500
501.38	247.0500
501.73	248.7500
502.08	247.7500
502.43	249.1500
502.77	252.3500
503.12	252.5500
503.47	251.6000
503.82	252.6000
504.17	255.0000
504.52	256.4000
504.86	258.1000
505.21	261.1000
505.56	259.9500
505.91	260.8000
506.26	259.5500
506.61	263.8000
506.95	263.9000
507.30	266.2500
507.65	268.3500
508.00	266.0000
508.35	268.7500
508.69	269.5000
509.04	271.5000
509.39	273.2000
509.74	273.2000
510.08	274.7500
510.43	277.1500
510.78	277.5500
511.13	278.8000
511.47	278.3000
511.82	280.9500
512.17	281.4000
512.52	282.4500
512.86	283.9500
513.21	284.8500
513.56	286.7500
513.91	288.1500
514.25	289.5000
514.60	293.0000
514.95	293.7000
515.30	292.0000
515.64	294.0500
515.99	295.5000
516.34	298.5000
516.68	300.7500
517.03	300.2500
517.38	300.8000
517.72	304.2000
518.07	303.3500
518.42	305.1500
518.76	306.0500
519.11	308.5000
519.46	310.5000
519.80	307.4500
520.15	308.6000
520.50	313.7000
520.84	312.4500
521.19	316.2000
521.54	315.3500
521.88	316.5000
522.23	318.5000
522.58	316.7500
522.92	318.2000
523.27	321.3500
523.61	320.4000
523.96	320.7000
524.31	325.1500
524.65	327.2000
525.00	326.4500
525.34	324.5000
525.69	325.0500
526.04	328.6000
526.38	328.8000
526.73	328.7500
527.07	332.6000
527.42	332.3500
527.76	335.0500
528.11	334.4000
528.46	331.9500
528.80	333.4500
529.15	333.4000
529.49	334.8000
529.84	334.5500
530.18	334.9000
530.53	337.8500
530.87	335.8000
531.22	337.0500
531.56	337.9000
531.91	339.1000
532.25	337.3500
532.60	337.8000
532.94	340.3500
533.29	339.0500
533.63	338.5000
533.98	339.4000
534.32	339.8000
534.67	344.7500
535.01	346.2500
535.36	341.1500
535.70	345.6500
536.05	345.7000
536.39	349.4500
536.74	346.5000
537.08	345.3500
537.43	341.7000
537.77	346.3000
538.12	351.5500
538.46	348.0000
538.80	352.3000
539.15	347.2000
539.49	350.4000
539.84	355.1500
540.18	354.5000
540.53	353.0500
540.87	352.6500
541.21	354.2500
541.56	354.9500
541.90	356.2000
542.25	355.9500
542.59	356.9500
542.93	359.1500
543.28	356.6000
543.62	359.6500
543.97	359.6500
544.31	359.1500
544.65	360.9500
545.00	362.7500
545.34	362.3500
545.68	362.6000
546.03	362.5000
546.37	366.9000
546.71	364.7500
547.06	367.9500
547.40	365.9000
547.74	371.4000
548.09	368.4500
548.43	370.8500
548.77	371.0000
549.12	368.3000
549.46	370.0500
549.80	370.9500
550.15	374.0000
550.49	374.5000
550.83	377.1500
551.17	378.4500
551.52	376.1000
551.86	376.9000
552.20	377.3000
552.55	378.7000
552.89	379.4500
553.23	383.8000
553.57	384.4500
553.92	383.6500
554.26	386.5000
554.60	385.9000
554.94	384.6000
555.29	384.6000
555.63	388.5000
555.97	389.6000
556.31	390.9500
556.66	389.5500
557.00	388.4500
557.34	391.7000
557.68	393.5500
558.02	394.9000
558.37	395.7000
558.71	394.3500
559.05	397.4500
559.39	396.0000
559.73	399.8500
560.08	398.2500
560.42	401.3500
560.76	401.8500
561.10	402.5000
561.44	399.6000
561.78	405.1000
562.13	406.0500
562.47	402.7500
562.81	406.4500
563.15	406.0500
563.49	406.2000
563.83	406.9500
564.17	408.5000
564.52	408.3000
564.86	411.7500
565.20	408.3000
565.54	409.3500
565.88	410.4000
566.22	411.3500
566.56	411.7000
566.90	412.0000
567.24	415.1500
567.59	415.6000
567.93	414.1500
568.27	414.3000
568.61	417.0000
568.95	413.9500
569.29	416.1500
569.63	419.7500
569.97	420.3500
570.31	411.1000
570.65	417.0000
570.99	419.1500
571.33	420.2000
571.67	418.4000
572.01	418.5500
572.35	420.5500
572.69	419.7000
573.03	424.3500
573.37	421.3500
573.71	422.1500
574.05	419.7000
574.39	421.2000
574.73	422.0500
575.07	419.5000
575.41	426.0500
575.75	424.0500
576.09	427.3500
576.43	422.8000
576.77	424.3500
577.11	420.7500
577.45	422.6500
577.79	422.4500
578.13	424.7000
578.47	422.8000
578.81	422.8500
579.15	423.3500
579.49	428.9500
579.83	425.6500
580.17	428.9500
580.51	427.7500
580.85	426.9000
581.19	427.4000
581.53	425.7000
581.87	426.9000
582.20	426.8500
582.54	428.4000
582.88	428.5500
583.22	425.3500
583.56	423.4000
583.90	427.9000
584.24	427.1000
584.58	426.3500
584.92	428.9500
585.25	428.9500
585.59	428.6000
585.93	427.5500
586.27	433.8000
586.61	422.1000
586.95	429.9000
587.29	430.7500
587.62	429.5500
587.96	430.4000
588.30	431.2500
588.64	429.5000
588.98	430.5000
589.31	433.0500
589.65	429.4000
589.99	428.8500
590.33	431.9500
590.67	431.2500
591.01	433.0500
591.34	434.2500
591.68	434.8000
592.02	433.0000
592.36	433.0500
592.69	432.7000
593.03	436.5500
593.37	436.3500
593.71	432.7000
594.04	435.0500
594.38	435.1000
594.72	437.0500
595.06	435.3000
595.39	433.9000
595.73	436.5000
596.07	441.4000
596.41	438.8500
596.74	442.3000
597.08	439.0500
597.42	439.6500
597.76	437.2500
598.09	440.2500
598.43	439.2000
598.77	440.3500
599.10	443.1500
599.44	440.7000
599.78	440.9000
600.11	440.3500
600.45	441.2500
600.79	443.2500
601.12	439.1000
601.46	444.6000
601.80	444.9500
602.13	444.3000
602.47	446.5000
602.81	442.9500
603.14	442.6500
603.48	446.4500
603.82	447.4500
604.15	447.3000
604.49	445.5500
604.82	447.2000
605.16	447.9000
605.50	445.1500
605.83	450.0000
606.17	448.8500
606.50	450.2000
606.84	445.8000
607.18	446.8500
607.51	448.8500
607.85	449.9000
608.18	450.0000
608.52	450.2500
608.86	452.3500
609.19	451.3000
609.53	446.7000
609.86	454.8000
610.20	453.2000
610.53	450.4500
610.87	448.3500
611.20	455.5500
611.54	449.6500
611.87	450.8000
612.21	451.2500
612.54	448.0000
612.88	449.5500
613.21	451.7500
613.55	451.6000
613.88	449.3000
614.22	451.1000
614.55	447.7500
614.89	448.2000
615.22	449.1000
615.56	447.5500
615.89	450.8500
616.23	452.9500
616.56	446.2500
616.90	450.8000
617.23	449.0000
617.57	449.7000
617.90	452.0000
618.24	451.0500
618.57	450.5000
618.90	450.8000
619.24	449.9500
619.57	448.4500
619.91	452.3500
620.24	443.3500
620.58	449.2000
620.91	448.8000
621.24	448.5000
621.58	451.2500
621.91	447.7000
622.25	447.5500
622.58	447.9000
622.91	450.8000
623.25	446.9000
623.58	447.9500
623.91	447.0500
624.25	448.6000
624.58	448.3500
624.92	449.0000
625.25	449.6500
625.58	444.5000
625.92	448.4500
626.25	446.8000
626.58	449.5000
626.92	446.7000
627.25	448.3000
627.58	446.2000
627.91	447.2500
628.25	444.3000
628.58	446.7500
628.91	444.2000
629.25	445.0500
629.58	443.8000
629.91	444.8000
630.25	448.9000
630.58	445.6500
630.91	445.5000
631.24	447.3000
631.58	446.0500
631.91	447.3000
632.24	439.2000
632.57	441.7000
632.91	444.5000
633.24	444.6000
633.57	443.1000
633.90	441.9000
634.24	440.8500
634.57	443.7500
634.90	445.8000
635.23	438.1500
635.56	437.6500
635.90	441.7000
636.23	440.6500
636.56	441.8000
636.89	441.0500
637.22	439.6000
637.56	440.3000
637.89	436.5500
638.22	439.1500
638.55	439.2500
638.88	436.1000
639.21	437.3000
639.55	438.8500
639.88	435.8000
640.21	437.4000
640.54	436.7500
640.87	434.1500
641.20	435.4500
641.53	436.0000
641.87	435.5500
642.20	434.0500
642.53	434.5000
642.86	434.4500
643.19	432.2500
643.52	436.0000
643.85	432.9500
644.18	432.6000
644.51	432.5000
644.84	433.0000
645.18	432.8000
645.51	429.5000
645.84	431.2500
646.17	430.7500
646.50	430.6500
646.83	433.9500
647.16	427.0500
647.49	430.3000
647.82	431.0000
648.15	429.4500
648.48	433.0500
648.81	431.7500
649.14	429.0500
649.47	429.4000
649.80	427.6500
650.13	428.9000
650.46	430.6000
650.79	428.5000
651.12	433.1000
651.45	429.9000
651.78	428.6000
652.11	428.6500
652.44	426.3000
652.77	427.0500
653.10	431.0500
653.43	428.9500
653.76	428.8500
654.09	426.4500
654.42	428.1500
654.75	426.4000
655.08	428.3500
655.41	426.2000
655.74	421.2000
656.07	427.4500
656.39	423.6000
656.72	423.5500
657.05	425.1000
657.38	428.1000
657.71	425.4500
658.04	425.0500
658.37	425.1000
658.70	426.6500
659.03	422.9000
659.36	424.4000
659.68	422.8500
660.01	423.2000
660.34	423.3500
660.67	423.4000
661.00	425.8500
661.33	423.5500
661.66	421.5500
661.98	425.2000
662.31	421.7000
662.64	421.5000
662.97	421.2500
663.30	420.1000
663.63	421.0500
663.95	419.4000
664.28	419.8500
664.61	418.2500
664.94	418.3000
665.27	421.2500
665.59	420.8500
665.92	420.0500
666.25	418.7000
666.58	416.6500
666.91	421.0500
667.23	419.0500
667.56	416.6500
667.89	414.5000
668.22	417.5000
668.54	416.5000
668.87	418.6500
669.20	416.0000
669.53	418.0500
669.85	415.4500
670.18	412.6500
670.51	414.0000
670.83	411.4500
671.16	412.2000
671.49	415.6500
671.82	414.1500
672.14	411.0500
672.47	411.6000
672.80	410.9000
673.12	410.2500
673.45	411.7000
673.78	408.1000
674.10	412.5500
674.43	408.5500
674.76	408.2500
675.08	411.2500
675.41	406.3500
675.74	406.7000
676.06	408.4500
676.39	404.0000
676.72	407.8500
677.04	405.0000
677.37	404.8000
677.69	402.4000
678.02	402.8000
678.35	402.9500
678.67	397.5000
679.00	404.7000
679.32	401.8500
679.65	399.2000
679.98	402.8000
680.30	397.4500
680.63	398.5500
680.95	396.0500
681.28	397.7500
681.60	395.3500
681.93	395.5000
682.26	394.4500
682.58	391.3000
682.91	394.0500
683.23	389.9000
683.56	390.0500
683.88	393.0500
684.21	390.3000
684.53	390.7500
684.86	391.6500
685.18	384.5500
685.51	388.0500
685.83	387.4000
686.16	386.7500
686.48	384.6500
686.81	387.9000
687.13	383.4500
687.46	386.4500
687.78	385.8500
688.11	381.5000
688.43	380.5500
688.76	382.0500
689.08	382.6500
689.41	378.3000
689.73	377.8000
690.05	378.0500
690.38	377.5500
690.70	376.9000
691.03	375.7000
691.35	376.6500
691.68	372.5500
692.00	373.9000
692.32	377.4500
692.65	373.9500
692.97	374.6000
693.29	372.7000
693.62	370.8500
693.94	372.4500
694.27	370.5500
694.59	365.5500
694.91	369.5000
695.24	368.6500
695.56	366.2000
695.88	364.7500
696.21	359.8000
696.53	358.5500
696.85	362.0000
697.18	363.2500
697.50	360.8000
697.82	363.0500
698.15	362.7000
698.47	358.3500
698.79	360.9500
699.12	361.2500
699.44	356.2500
699.76	354.9500
700.09	355.9000
700.41	356.0500
700.73	354.2000
701.05	357.0000
701.38	353.1500
701.70	353.8500
702.02	353.8500
702.34	351.4000
702.67	352.9500
702.99	354.3500
703.31	350.7500
703.63	350.0000
703.96	349.8500
704.28	349.9000
704.60	348.2500
704.92	350.3500
705.25	349.3000
705.57	345.3000
705.89	346.8500
706.21	344.2000
706.53	345.3000
706.86	343.9000
707.18	345.6000
707.50	346.4500
707.82	345.7000
708.14	344.5500
708.46	344.7500
708.79	341.9000
709.11	342.2500
709.43	341.3500
709.75	339.8500
710.07	339.3000
710.39	340.7500
710.71	339.5500
711.04	335.8000
711.36	337.5000
711.68	335.6000
712.00	337.0000
712.32	337.8500
712.64	334.5500
712.96	333.7500
713.28	333.9500
713.60	333.6000
713.92	332.0500
714.24	333.8000
714.57	332.8500
714.89	333.0000
715.21	330.5500
715.53	326.7500
715.85	332.0000
716.17	329.0000
716.49	328.0000
716.81	330.1000
717.13	327.9500
717.45	326.7000
717.77	325.6000
718.09	325.5500
718.41	324.3500
718.73	324.1000
719.05	323.6500
719.37	317.4000
719.69	324.1500
720.01	321.9000
720.33	321.1500
720.65	319.2000
720.97	319.4000
721.29	317.2000
721.61	318.2000
721.93	316.9500
722.25	314.1000
722.57	314.5000
722.89	311.1500
723.21	315.3000
723.52	311.7500
723.84	311.2500
724.16	311.8500
724.48	311.7000
724.80	312.0000
725.12	311.6000
725.44	310.4000
725.76	309.4000
726.08	310.8000
726.40	308.3500
726.72	310.7500
727.03	309.7500
727.35	308.8500
727.67	307.8500
727.99	306.2500
728.31	304.9500
728.63	307.1000
728.95	305.8000
729.26	304.2000
729.58	304.3000
729.90	305.4500
730.22	300.3000
730.54	301.8000
730.86	302.1000
731.17	302.0000
731.49	300.9000
731.81	303.4500
732.13	301.6000
732.45	298.9500
732.76	298.0000
733.08	301.5000
733.40	300.7000
733.72	297.9500
734.03	296.7500
734.35	296.2500
734.67	297.3000
734.99	294.5000
735.30	297.8000
735.62	295.9500
735.94	294.7000
736.26	296.9000
736.57	292.5500
736.89	293.7500
737.21	291.2500
737.53	292.0500
737.84	290.8500
738.16	289.1500
738.48	290.0000
738.79	289.4000
739.11	288.4000
739.43	285.5500
739.74	285.1000
740.06	282.5500
740.38	285.4000
740.69	283.0000
741.01	281.8000
741.33	279.8500
741.64	278.3500
741.96	278.7500
742.28	280.2000
742.59	276.8000
742.91	276.8500
743.23	274.3000
743.54	277.1000
743.86	273.7500
744.17	271.3500
744.49	274.2000
744.81	273.0500
745.12	270.7000
745.44	268.4500
745.75	271.3000
746.07	269.1000
746.38	268.7000
746.70	267.9000
747.02	266.9000
747.33	267.0000
747.65	268.5000
747.96	266.5000
748.28	266.0000
748.59	266.0500
748.91	262.9500
749.22	263.5000
749.54	264.6000
749.85	264.7500
750.17	263.3500
750.48	263.5000
750.80	261.3500
751.11	261.4500
751.43	263.5000
751.74	260.4500
752.06	260.3000
752.37	261.0500
752.69	260.6000
753.00	258.3000
753.32	259.3000
753.63	259.2000
753.95	257.8000
754.26	257.4000
754.58	257.2000
754.89	257.9000
755.20	258.6000
755.52	256.3500
755.83	255.4500
756.15	257.0500
756.46	255.3000
756.78	255.8500
757.09	255.3000
757.40	254.4000
757.72	253.5000
758.03	252.8000
758.34	253.2500
758.66	253.7500
758.97	254.1500
759.29	252.2500
759.60	253.3500
759.91	251.3000
760.23	250.3000
760.54	251.4500
760.85	250.9500
761.17	249.7000
761.48	249.5500
761.79	247.7500
762.11	248.2000
762.42	246.7500
762.73	247.6500
763.05	248.1500
763.36	248.9500
763.67	248.5500
763.98	243.0000
764.30	242.4500
764.61	244.5500
764.92	245.6000
765.23	243.6500
765.55	242.6500
765.86	242.2000
766.17	243.1500
766.48	242.2500
766.80	240.2000
767.11	242.1500
767.42	238.5000
767.73	237.9000
768.05	238.5000
768.36	239.2000
768.67	239.8000
768.98	237.7000
769.29	240.5500
769.61	235.6000
769.92	234.5000
770.23	235.8500
770.54	231.8500
770.85	235.4000
771.17	234.5000
771.48	232.7500
771.79	232.8500
772.10	230.8000
772.41	231.6000
772.72	230.4000
773.03	227.6000
773.35	227.6500
773.66	226.4000
773.97	227.1000
774.28	225.0500
774.59	224.3000
774.90	226.6000
775.21	224.3000
775.52	224.8000
775.83	224.4500
776.15	222.6500
776.46	222.4000
776.77	223.1000
777.08	220.3000
777.39	219.9000
777.70	219.7000
778.01	218.9000
778.32	220.2500
778.63	218.8000
778.94	217.8500
779.25	217.9000
779.56	216.0000
779.87	215.4500
780.18	215.2000
780.49	213.5500
780.80	215.3000
781.11	214.0000
781.42	213.3500
781.73	212.5000
782.04	208.6500
782.35	209.2500
782.66	208.2000
782.97	210.0000
783.28	210.4500
783.59	207.2500
783.90	208.6500
784.21	207.4000
784.52	206.1000
784.83	204.2500
785.14	203.2000
785.45	204.2500
785.76	203.9500
786.06	203.1500
786.37	203.0500
786.68	201.7000
786.99	200.0000
787.30	199.8500
787.61	200.7500
787.92	198.6500
788.23	197.0500
788.54	199.6000
788.84	198.8500
789.15	199.3000
789.46	196.9000
789.77	195.2000
790.08	196.0500
790.39	194.3500
790.70	196.7000
791.00	194.6500
791.31	193.1500
791.62	193.3500
791.93	192.0500
792.24	191.3000
792.54	191.1500
792.85	189.6500
793.16	191.4500
793.47	188.8500
793.78	189.8500
794.08	188.8500
794.39	186.7500
794.70	186.9500
795.01	186.6500
795.31	186.7000
795.62	183.2000
795.93	184.9000
796.24	185.4500
796.54	183.9500
796.85	184.0500
797.16	183.1500
797.47	181.2500
797.77	182.0000
798.08	180.3000
798.39	180.9500
798.69	179.6500
799.00	177.2000
799.31	178.6500
799.62	177.2000
799.92	178.2500
800.23	176.8500
800.54	177.2500
800.84	176.8000
801.15	175.8500
801.46	175.3000
801.76	175.8000
802.07	174.5000
802.37	172.8000
802.68	173.1500
802.99	174.4500
803.29	172.2500
803.60	171.2000
803.91	170.1500
804.21	170.0000
804.52	170.1500
804.82	170.2000
805.13	171.2000
805.44	169.1500
805.74	168.8000
806.05	169.2000
806.35	168.1000
806.66	167.1500
806.96	167.2000
807.27	166.4000
807.57	167.1500
807.88	165.7000
808.19	164.8500
808.49	165.8500
808.80	165.4000
809.10	163.0000
809.41	164.9500
809.71	162.8000
810.02	162.7500
810.32	160.6000
810.63	162.5500
810.93	162.1500
811.24	161.8000
811.54	163.0000
811.85	162.5000
812.15	160.8000
812.45	159.7000
812.76	159.4000
813.06	158.7000
813.37	157.8500
813.67	159.0000
813.98	157.1500
814.28	157.1000
814.58	157.4000
814.89	156.0000
815.19	156.1000
815.50	153.8500
815.80	154.6000
816.11	154.2000
816.41	154.8000
816.71	154.2000
817.02	152.4500
817.32	153.9500
817.62	153.1000
817.93	154.3500
818.23	150.4500
818.53	152.7500
818.84	152.4500
819.14	150.5000
819.44	150.3500
819.75	151.5500
820.05	150.2000
820.35	150.7500
820.66	148.4000
820.96	147.9000
821.26	148.1000
821.57	148.9500
821.87	148.5000
822.17	149.1000
822.48	148.6000
822.78	147.7500
823.08	146.6500
823.38	148.8000
823.69	146.6000
823.99	145.9500
824.29	146.1500
824.59	145.1000
824.90	146.3000
825.20	145.2000
825.50	144.5500
825.80	143.5500
826.10	145.6500
826.41	144.9500
826.71	143.5500
827.01	143.4000
827.31	144.0000
827.61	142.8000
827.92	143.6000
828.22	141.4500
828.52	141.4000
828.82	142.2500
829.12	141.0500
829.42	141.4000
829.73	141.1000
830.03	140.4500
830.33	141.1500
830.63	141.0000
830.93	140.3500
831.23	138.2000
831.53	139.6000
831.83	139.2500
832.14	137.5000
832.44	138.2000
832.74	137.5500
833.04	138.2500
833.34	139.1000
833.64	137.7000
833.94	135.7000
834.24	135.9000
834.54	135.9000
834.84	136.4000
835.14	135.7000
835.44	135.9000
835.74	135.7000
836.04	135.3500
836.34	135.2500
836.64	135.9000
836.95	135.1500
837.25	133.3500
837.55	134.2500
837.85	133.8000
838.15	135.1000
838.45	133.0500
838.74	132.8000
839.04	132.5000
839.34	132.4000
839.64	131.9500
839.94	130.5500
840.24	131.2500
840.54	131.3500
840.84	132.3500
841.14	130.4500
841.44	130.3000
841.74	130.6000
842.04	130.8000
842.34	129.6000
842.64	129.9500
842.94	130.0000
843.24	129.7500
843.53	129.8000
843.83	129.6500
844.13	128.4000
844.43	128.7500
844.73	127.9500
845.03	128.3500
845.33	127.4000
845.63	127.1500
845.92	125.5500
846.22	127.5000
846.52	126.2500
846.82	127.4500
847.12	125.7500
847.42	125.9500
847.71	125.2000
848.01	126.3000
848.31	124.7000
848.61	125.1500
848.91	125.3000
849.20	126.1000
849.50	124.4000
849.80	124.4000
850.10	124.3000
850.39	124.1500
850.69	123.8000
850.99	123.3500
851.29	122.7000
851.59	122.7500
851.88	122.2000
852.18	123.3000
852.48	123.9500
852.77	122.7000
853.07	122.0000
853.37	122.7000
853.67	120.4000
853.96	123.2500
854.26	122.2000
854.56	121.0500
854.85	120.5000
855.15	121.3000
855.45	121.0000
855.74	119.5000
856.04	121.1000
856.34	120.7500
856.63	118.8000
856.93	118.8000
857.23	119.7500
857.52	117.1000
857.82	116.5000
858.11	119.3500
858.41	118.4000
858.71	117.1500
859.00	117.3000
859.30	116.4500
859.59	117.6000
859.89	117.0000
860.19	116.9500
860.48	116.8500
860.78	116.7500
861.07	116.9500
861.37	116.7000
861.66	117.1500
861.96	115.7000
862.26	115.1000
862.55	114.4500
862.85	114.8000
863.14	115.3500
863.44	114.3000
863.73	114.8000
864.03	114.6500
864.32	114.9000
864.62	114.3500
864.91	113.3500
865.21	113.6500
865.50	113.8500
865.80	112.9500
866.09	113.8000
866.39	113.1500
866.68	113.6000
866.97	112.6000
867.27	112.3500
867.56	112.3000
867.86	111.3000
868.15	111.3500
868.45	111.6000
868.74	109.9000
869.03	109.7000
869.33	109.6000
869.62	110.4500
869.92	110.7500
870.21	109.4500
870.50	109.2000
870.80	109.3000
871.09	108.5500
871.39	109.0500
871.68	108.5500
871.97	107.7500
872.27	109.0000
872.56	107.1000
872.85	106.2000
873.15	107.0000
873.44	106.7000
873.73	108.4000
874.03	107.4500
874.32	106.2500
874.61	106.6500
874.90	105.6500
875.20	105.3000
875.49	105.8500
875.78	105.5000
>>>>>End Spectral Data<<<<<
